节点500_425_QEPB04081__591__15-58-08-427.txt的数据

Date: Wed Nov 12 15:58:08 CST 2025
User: PC
Spectrometer: QEPB0408
触发模式: 0
积分时间 (秒): 1.000000E-2
Scans to average: 1
启用暗噪声校正: true
启用非线性校正: false
滑动平均宽度: 0
X轴模式: Wavelengths
Number of Pixels in Spectrum: 1044
>>>>>Begin Spectral Data<<<<<
220.843	3.25
221.644	3.25
222.444	0.25
223.244	3.25
224.045	2.25
224.845	0.25
225.645	3.25
226.445	5.25
227.245	3.25
228.045	4.25
228.845	4.25
229.645	3.25
230.444	4.25
231.244	4.25
232.043	7.25
232.843	4.25
233.642	5.25
234.442	5.25
235.241	7.25
236.04	8.25
236.839	4.25
237.638	5.25
238.437	6.25
239.236	8.25
240.035	7.25
240.833	7.25
241.632	5.25
242.43	6.25
243.229	6.25
244.027	7.25
244.826	8.25
245.624	6.25
246.422	8.25
247.22	7.25
248.018	11.25
248.816	9.25
249.614	9.25
250.412	7.25
251.21	7.25
252.007	10.25
252.805	6.25
253.602	8.25
254.4	9.25
255.197	11.25
255.994	11.25
256.791	10.25
257.589	11.25
258.386	13.25
259.183	14.25
259.979	14.25
260.776	12.25
261.573	13.25
262.37	13.25
263.166	14.25
263.963	15.25
264.759	18.25
265.556	14.25
266.352	16.25
267.148	14.25
267.944	14.25
268.74	16.25
269.536	18.25
270.332	17.25
271.128	20.25
271.924	14.25
272.719	16.25
273.515	16.25
274.311	23.25
275.106	20.25
275.901	22.25
276.697	19.25
277.492	19.25
278.287	20.25
279.082	20.25
279.877	23.25
280.672	22.25
281.467	21.25
282.262	23.25
283.056	21.25
283.851	22.25
284.646	23.25
285.44	23.25
286.234	22.25
287.029	23.25
287.823	21.25
288.617	22.25
289.411	19.25
290.205	23.25
290.999	23.25
291.793	24.25
292.587	23.25
293.381	21.25
294.174	20.25
294.968	20.25
295.761	23.25
296.555	18.25
297.348	18.25
298.141	19.25
298.935	20.25
299.728	21.25
300.521	17.25
301.314	18.25
302.107	19.25
302.899	15.25
303.692	13.25
304.485	14.25
305.277	17.25
306.07	19.25
306.862	16.25
307.655	16.25
308.447	16.25
309.239	17.25
310.031	13.25
310.823	11.25
311.615	14.25
312.407	12.25
313.199	13.25
313.991	10.25
314.783	10.25
315.574	14.25
316.366	10.25
317.157	9.25
317.949	9.25
318.74	11.25
319.531	9.25
320.322	10.25
321.113	9.25
321.904	10.25
322.695	12.25
323.486	8.25
324.277	8.25
325.068	10.25
325.858	10.25
326.649	8.25
327.439	11.25
328.23	11.25
329.02	8.25
329.81	8.25
330.6	7.25
331.391	7.25
332.181	10.25
332.971	6.25
333.76	8.25
334.55	8.25
335.34	9.25
336.13	6.25
336.919	7.25
337.709	9.25
338.498	8.25
339.287	10.25
340.077	7.25
340.866	10.25
341.655	7.25
342.444	7.25
343.233	8.25
344.022	6.25
344.811	10.25
345.6	8.25
346.388	6.25
347.177	10.25
347.965	6.25
348.754	6.25
349.542	7.25
350.33	6.25
351.119	9.25
351.907	8.25
352.695	7.25
353.483	4.25
354.271	8.25
355.059	6.25
355.846	7.25
356.634	10.25
357.422	6.25
358.209	6.25
358.997	8.25
359.784	8.25
360.571	7.25
361.359	7.25
362.146	8.25
362.933	5.25
363.72	10.25
364.507	6.25
365.294	7.25
366.081	7.25
366.867	6.25
367.654	6.25
368.44	4.25
369.227	7.25
370.013	7.25
370.8	6.25
371.586	6.25
372.372	5.25
373.158	8.25
373.944	7.25
374.73	4.25
375.516	6.25
376.302	5.25
377.088	5.25
377.873	8.25
378.659	6.25
379.445	5.25
380.23	6.25
381.015	5.25
381.801	7.25
382.586	6.25
383.371	8.25
384.156	7.25
384.941	11.25
385.726	4.25
386.511	6.25
387.296	7.25
388.08	7.25
388.865	9.25
389.649	7.25
390.434	6.25
391.218	8.25
392.003	8.25
392.787	8.25
393.571	8.25
394.355	7.25
395.139	8.25
395.923	7.25
396.707	6.25
397.491	8.25
398.274	9.25
399.058	8.25
399.842	10.25
400.625	10.25
401.408	9.25
402.192	8.25
402.975	9.25
403.758	12.25
404.541	8.25
405.324	10.25
406.107	9.25
406.89	9.25
407.673	10.25
408.456	10.25
409.238	12.25
410.021	8.25
410.803	13.25
411.586	11.25
412.368	11.25
413.151	11.25
413.933	11.25
414.715	13.25
415.497	12.25
416.279	13.25
417.061	13.25
417.843	14.25
418.624	13.25
419.406	12.25
420.188	13.25
420.969	13.25
421.751	14.25
422.532	15.25
423.313	12.25
424.095	16.25
424.876	14.25
425.657	15.25
426.438	18.25
427.219	16.25
428	18.25
428.78	16.25
429.561	19.25
430.342	18.25
431.122	17.25
431.903	22.25
432.683	20.25
433.464	19.25
434.244	23.25
435.024	24.25
435.804	26.25
436.584	26.25
437.364	26.25
438.144	28.25
438.924	29.25
439.704	32.25
440.483	35.25
441.263	36.25
442.042	36.25
442.822	43.25
443.601	44.25
444.38	46.25
445.16	51.25
445.939	55.25
446.718	61.25
447.497	61.25
448.276	70.25
449.054	79.25
449.833	85.25
450.612	93.25
451.391	99.25
452.169	113.25
452.948	123.25
453.726	139.25
454.504	151.25
455.282	169.25
456.061	189.25
456.839	209.25
457.617	228.25
458.395	254.25
459.172	285.25
459.95	312.25
460.728	350.25
461.506	393.25
462.283	433.25
463.061	492.25
463.838	538.25
464.615	606.25
465.393	664.25
466.17	735.25
466.947	819.25
467.724	893.25
468.501	982.25
469.278	1100.25
470.055	1201.25
470.831	1340.25
471.608	1480.25
472.385	1627.25
473.161	1801.25
473.938	1975.25
474.714	2175.25
475.49	2379.25
476.266	2603.25
477.043	2844.25
477.819	3158.25
478.595	3421.25
479.371	3709.25
480.146	4057.25
480.922	4438.25
481.698	4847.25
482.473	5250.25
483.249	5686.25
484.024	6252.25
484.8	6784.25
485.575	7357.25
486.35	7940.25
487.126	8625.25
487.901	9375.25
488.676	10132.25
489.451	10961.25
490.225	11850.25
491	12826.25
491.775	13823.25
492.55	14852.25
493.324	15884.25
494.099	17018.25
494.873	18147.25
495.647	19364.25
496.422	20629.25
497.196	21828.25
497.97	23144.25
498.744	24433.25
499.518	25695.25
500.292	26837.25
501.066	27946.25
501.839	29020.25
502.613	29993.25
503.387	30797.25
504.16	31522.25
504.934	32046.25
505.707	32319.25
506.48	32449.25
507.253	32523.25
508.027	32417.25
508.8	32165.25
509.573	31858.25
510.346	31273.25
511.118	30542.25
511.891	29870.25
512.664	28987.25
513.437	28037.25
514.209	27081.25
514.982	26206.25
515.754	25188.25
516.526	24250.25
517.298	23313.25
518.071	22353.25
518.843	21496.25
519.615	20627.25
520.387	19777.25
521.159	19088.25
521.93	18357.25
522.702	17657.25
523.474	16950.25
524.245	16232.25
525.017	15544.25
525.788	14845.25
526.56	14264.25
527.331	13612.25
528.102	13037.25
528.873	12459.25
529.644	11877.25
530.415	11341.25
531.186	10866.25
531.957	10330.25
532.728	9786.25
533.498	9250.25
534.269	8777.25
535.039	8343.25
535.81	7881.25
536.58	7447.25
537.351	7030.25
538.121	6681.25
538.891	6316.25
539.661	5999.25
540.431	5673.25
541.201	5369.25
541.971	5076.25
542.741	4869.25
543.51	4610.25
544.28	4345.25
545.05	4144.25
545.819	3958.25
546.588	3742.25
547.358	3561.25
548.127	3361.25
548.896	3226.25
549.665	3062.25
550.434	2906.25
551.203	2753.25
551.972	2617.25
552.741	2499.25
553.51	2335.25
554.278	2230.25
555.047	2096.25
555.815	1964.25
556.584	1876.25
557.352	1766.25
558.121	1662.25
558.889	1584.25
559.657	1490.25
560.425	1412.25
561.193	1322.25
561.961	1267.25
562.729	1181.25
563.496	1122.25
564.264	1067.25
565.032	1014.25
565.799	954.25
566.567	899.25
567.334	857.25
568.101	809.25
568.869	754.25
569.636	719.25
570.403	676.25
571.17	633.25
571.937	601.25
572.704	579.25
573.471	543.25
574.237	504.25
575.004	476.25
575.771	447.25
576.537	425.25
577.303	401.25
578.07	381.25
578.836	348.25
579.602	332.25
580.368	320.25
581.134	299.25
581.9	292.25
582.666	269.25
583.432	258.25
584.198	244.25
584.964	225.25
585.729	225.25
586.495	203.25
587.26	196.25
588.025	188.25
588.791	173.25
589.556	167.25
590.321	158.25
591.086	149.25
591.851	137.25
592.616	138.25
593.381	123.25
594.146	119.25
594.911	119.25
595.675	109.25
596.44	102.25
597.204	106.25
597.969	91.25
598.733	94.25
599.497	90.25
600.261	85.25
601.025	82.25
601.79	78.25
602.553	80.25
603.317	71.25
604.081	71.25
604.845	65.25
605.609	64.25
606.372	63.25
607.136	56.25
607.899	59.25
608.662	52.25
609.426	50.25
610.189	52.25
610.952	48.25
611.715	42.25
612.478	43.25
613.241	47.25
614.004	38.25
614.767	38.25
615.529	40.25
616.292	35.25
617.055	35.25
617.817	34.25
618.579	32.25
619.342	32.25
620.104	28.25
620.866	32.25
621.628	28.25
622.39	28.25
623.152	25.25
623.914	22.25
624.676	26.25
625.438	24.25
626.199	25.25
626.961	18.25
627.722	23.25
628.484	20.25
629.245	17.25
630.006	19.25
630.768	21.25
631.529	18.25
632.29	13.25
633.051	20.25
633.812	15.25
634.573	16.25
635.333	17.25
636.094	17.25
636.855	17.25
637.615	14.25
638.376	13.25
639.136	16.25
639.896	13.25
640.657	15.25
641.417	13.25
642.177	12.25
642.937	11.25
643.697	12.25
644.457	15.25
645.216	9.25
645.976	12.25
646.736	12.25
647.495	9.25
648.255	9.25
649.014	9.25
649.774	10.25
650.533	9.25
651.292	13.25
652.051	9.25
652.81	9.25
653.569	8.25
654.328	8.25
655.087	10.25
655.846	10.25
656.604	8.25
657.363	7.25
658.121	8.25
658.88	8.25
659.638	6.25
660.397	6.25
661.155	10.25
661.913	6.25
662.671	8.25
663.429	6.25
664.187	5.25
664.945	6.25
665.703	8.25
666.46	6.25
667.218	7.25
667.976	7.25
668.733	5.25
669.49	7.25
670.248	6.25
671.005	5.25
671.762	9.25
672.519	6.25
673.276	7.25
674.033	6.25
674.79	5.25
675.547	6.25
676.304	5.25
677.06	6.25
677.817	6.25
678.574	6.25
679.33	5.25
680.086	3.25
680.843	6.25
681.599	2.25
682.355	7.25
683.111	7.25
683.867	5.25
684.623	5.25
685.379	7.25
686.135	6.25
686.89	7.25
687.646	6.25
688.402	4.25
689.157	3.25
689.912	6.25
690.668	4.25
691.423	5.25
692.178	7.25
692.933	3.25
693.688	7.25
694.443	5.25
695.198	5.25
695.953	5.25
696.708	8.25
697.462	5.25
698.217	4.25
698.972	5.25
699.726	4.25
700.48	3.25
701.235	4.25
701.989	5.25
702.743	3.25
703.497	3.25
704.251	2.25
705.005	6.25
705.759	3.25
706.513	4.25
707.266	2.25
708.02	5.25
708.774	2.25
709.527	4.25
710.28	5.25
711.034	4.25
711.787	2.25
712.54	4.25
713.293	2.25
714.046	5.25
714.799	4.25
715.552	5.25
716.305	6.25
717.058	4.25
717.81	5.25
718.563	5.25
719.315	2.25
720.068	5.25
720.82	4.25
721.573	3.25
722.325	6.25
723.077	5.25
723.829	7.25
724.581	5.25
725.333	5.25
726.085	6.25
726.836	4.25
727.588	5.25
728.34	5.25
729.091	6.25
729.843	1.25
730.594	4.25
731.346	7.25
732.097	5.25
732.848	4.25
733.599	7.25
734.35	5.25
735.101	6.25
735.852	2.25
736.603	4.25
737.354	5.25
738.104	7.25
738.855	6.25
739.605	4.25
740.356	5.25
741.106	4.25
741.856	7.25
742.607	5.25
743.357	6.25
744.107	4.25
744.857	4.25
745.607	4.25
746.357	6.25
747.106	7.25
747.856	5.25
748.606	6.25
749.355	7.25
750.105	7.25
750.854	8.25
751.603	7.25
752.353	7.25
753.102	7.25
753.851	2.25
754.6	7.25
755.349	6.25
756.098	6.25
756.847	8.25
757.595	8.25
758.344	9.25
759.093	6.25
759.841	7.25
760.589	7.25
761.338	7.25
762.086	8.25
762.834	6.25
763.582	8.25
764.331	10.25
765.079	8.25
765.826	8.25
766.574	10.25
767.322	8.25
768.07	9.25
768.817	10.25
769.565	6.25
770.312	8.25
771.06	10.25
771.807	9.25
772.554	13.25
773.302	9.25
774.049	9.25
774.796	10.25
775.543	9.25
776.29	8.25
777.036	12.25
777.783	10.25
778.53	11.25
779.276	10.25
780.023	9.25
780.769	9.25
781.516	9.25
782.262	10.25
783.008	11.25
783.754	9.25
784.5	11.25
785.246	13.25
785.992	9.25
786.738	12.25
787.484	10.25
788.23	11.25
788.975	13.25
789.721	9.25
790.466	9.25
791.212	10.25
791.957	8.25
792.702	12.25
793.447	11.25
794.193	9.25
794.938	10.25
795.683	10.25
796.427	11.25
797.172	10.25
797.917	10.25
798.662	6.25
799.406	10.25
800.151	6.25
800.895	9.25
801.64	9.25
802.384	7.25
803.128	7.25
803.872	9.25
804.616	10.25
805.36	9.25
806.104	6.25
806.848	6.25
807.592	6.25
808.336	9.25
809.079	6.25
809.823	7.25
810.566	8.25
811.31	6.25
812.053	6.25
812.796	6.25
813.539	5.25
814.283	5.25
815.026	6.25
815.769	9.25
816.511	5.25
817.254	7.25
817.997	5.25
818.74	6.25
819.482	7.25
820.225	6.25
820.967	6.25
821.71	5.25
822.452	6.25
823.194	7.25
823.936	5.25
824.678	7.25
825.42	4.25
826.162	4.25
826.904	5.25
827.646	4.25
828.388	5.25
829.129	4.25
829.871	6.25
830.612	3.25
831.354	6.25
832.095	6.25
832.836	5.25
833.577	4.25
834.319	2.25
835.06	4.25
835.801	3.25
836.542	5.25
837.282	6.25
838.023	2.25
838.764	5.25
839.504	5.25
840.245	4.25
840.985	6.25
841.726	2.25
842.466	4.25
843.206	4.25
843.946	3.25
844.687	2.25
845.427	5.25
846.166	3.25
846.906	4.25
847.646	4.25
848.386	5.25
849.125	1.25
849.865	5.25
850.605	5.25
851.344	4.25
852.083	3.25
852.823	3.25
853.562	3.25
854.301	4.25
855.04	2.25
855.779	5.25
856.518	2.25
857.257	4.25
857.995	2.25
858.734	2.25
859.473	1.25
860.211	3.25
860.95	1.25
861.688	3.25
862.426	2.25
863.165	0.25
863.903	1.25
864.641	4.25
865.379	2.25
866.117	1.25
866.855	4.25
867.593	4.25
868.33	3.25
869.068	1.25
869.806	1.25
870.543	3.25
871.28	2.25
872.018	1.25
872.755	1.25
873.492	1.25
874.229	0.25
874.967	2.25
875.703	3.25
876.44	0.25
877.177	1.25
877.914	1.25
878.651	2.25
879.387	3.25
880.124	1.25
880.86	1.25
881.597	-0.75
882.333	0.25
883.069	2.25
883.806	-0.75
884.542	2.25
885.278	2.25
886.014	1.25
886.749	2.25
887.485	2.25
888.221	1.25
888.957	0.25
889.692	2.25
890.428	0.25
891.163	2.25
891.899	2.25
892.634	-0.75
893.369	2.25
894.104	0.25
894.839	0.25
895.574	0.25
896.309	1.25
897.044	1.25
897.779	0.25
898.514	2.25
899.248	0.25
899.983	-0.75
900.717	-0.75
901.452	0.25
902.186	0.25
902.92	0.25
903.654	0.25
904.389	2.25
905.123	1.25
905.857	1.25
906.59	0.25
907.324	0.25
908.058	-0.75
908.792	0.25
909.525	2.25
910.259	1.25
910.992	2.25
911.726	1.25
912.459	1.25
913.192	0.25
913.925	1.25
914.658	0.25
915.391	0.25
916.124	3.25
916.857	0.25
917.59	-1.75
918.323	-1.75
919.055	-0.75
919.788	-0.75
920.521	-0.75
921.253	0.25
921.985	0.25
922.718	0.25
923.45	0.25
924.182	1.25
924.914	1.25
925.646	-2.75
926.378	2.25
927.11	-0.75
927.841	2.25
928.573	1.25
929.305	-0.75
930.036	-0.75
930.768	1.25
931.499	2.25
932.23	0.25
932.962	-0.75
933.693	-0.75
934.424	-0.75
935.155	-0.75
935.886	2.25
936.617	0.25
937.348	0.25
938.078	0.25
938.809	1.25
939.54	1.25
940.27	0.25
941.001	1.25
941.731	-2.75
942.461	1.25
943.191	0.25
943.922	1.25
944.652	-0.75
945.382	1.25
946.112	1.25
946.841	1.25
947.571	-0.75
948.301	-1.75
949.031	0.25
949.76	-0.75
950.49	-1.75
951.219	-0.75
951.948	-3.75
952.678	3.25
953.407	-1.75
954.136	-0.75
954.865	1.25
955.594	0.25
956.323	0.25
957.052	0.25
957.78	-1.75
958.509	-0.75
959.238	2.25
959.966	3.25
960.695	-0.75
961.423	0.25
962.151	0.25
962.88	-0.75
963.608	1.25
964.336	-1.75
965.064	-1.75
965.792	-0.75
966.52	2.25
967.247	0.25
967.975	1.25
968.703	0.25
969.43	-1.75
970.158	0.25
970.885	0.25
971.613	0.25
972.34	1.25
973.067	-0.75
973.794	0.25
974.521	-1.75
975.248	-1.75
975.975	2.25
976.702	0.25
977.429	2.25
978.156	-0.75
978.882	-1.75
979.609	-0.75
980.335	-1.75
981.062	-1.75
981.788	0.25
982.514	0.25
983.24	1.25
983.967	0.25
984.693	-1.75
985.419	0.25
986.144	0.25
986.87	0.25
987.596	0.25
988.322	1.25
989.047	-0.75
989.773	-0.75
990.498	-0.75
991.224	1.25
991.949	0.25
992.674	0.25
993.399	1.25
994.124	1.25
994.849	-0.75
995.574	0.25
996.299	0.25
997.024	-0.75
997.749	-1.75
998.473	1.25
999.198	-0.75
999.922	1.25
1000.647	0.25
1001.371	3.25
1002.095	-0.75
1002.82	-0.75
1003.544	-0.75
1004.268	2.25
1004.992	1.25
1005.716	3.25
1006.439	1.25
1007.163	4.25
1007.887	0.25
1008.611	2.25
1009.334	1.25
1010.058	-0.75
1010.781	0.25
1011.504	-2.75
1012.228	1.25
1012.951	1.25
1013.674	-0.75
1014.397	1.25
1015.12	-2.75
