节点500_425_QEPB04081__521__15-56-58-568.txt的数据

Date: Wed Nov 12 15:56:58 CST 2025
User: PC
Spectrometer: QEPB0408
触发模式: 0
积分时间 (秒): 1.000000E-2
Scans to average: 1
启用暗噪声校正: true
启用非线性校正: false
滑动平均宽度: 0
X轴模式: Wavelengths
Number of Pixels in Spectrum: 1044
>>>>>Begin Spectral Data<<<<<
220.843	2.25
221.644	3.25
222.444	3.25
223.244	3.25
224.045	4.25
224.845	2.25
225.645	4.25
226.445	4.25
227.245	4.25
228.045	3.25
228.845	2.25
229.645	2.25
230.444	2.25
231.244	5.25
232.043	4.25
232.843	4.25
233.642	4.25
234.442	4.25
235.241	6.25
236.04	5.25
236.839	3.25
237.638	6.25
238.437	7.25
239.236	8.25
240.035	6.25
240.833	6.25
241.632	8.25
242.43	6.25
243.229	9.25
244.027	5.25
244.826	8.25
245.624	8.25
246.422	10.25
247.22	9.25
248.018	7.25
248.816	8.25
249.614	8.25
250.412	8.25
251.21	10.25
252.007	10.25
252.805	8.25
253.602	7.25
254.4	9.25
255.197	9.25
255.994	10.25
256.791	10.25
257.589	13.25
258.386	14.25
259.183	13.25
259.979	12.25
260.776	11.25
261.573	12.25
262.37	14.25
263.166	13.25
263.963	14.25
264.759	15.25
265.556	15.25
266.352	17.25
267.148	14.25
267.944	16.25
268.74	18.25
269.536	18.25
270.332	18.25
271.128	18.25
271.924	20.25
272.719	18.25
273.515	20.25
274.311	21.25
275.106	21.25
275.901	20.25
276.697	20.25
277.492	20.25
278.287	21.25
279.082	24.25
279.877	22.25
280.672	21.25
281.467	23.25
282.262	23.25
283.056	23.25
283.851	23.25
284.646	19.25
285.44	23.25
286.234	23.25
287.029	24.25
287.823	21.25
288.617	22.25
289.411	23.25
290.205	20.25
290.999	26.25
291.793	20.25
292.587	24.25
293.381	17.25
294.174	22.25
294.968	22.25
295.761	22.25
296.555	21.25
297.348	18.25
298.141	19.25
298.935	18.25
299.728	18.25
300.521	20.25
301.314	16.25
302.107	17.25
302.899	19.25
303.692	14.25
304.485	17.25
305.277	17.25
306.07	15.25
306.862	14.25
307.655	14.25
308.447	16.25
309.239	13.25
310.031	16.25
310.823	14.25
311.615	14.25
312.407	12.25
313.199	13.25
313.991	13.25
314.783	12.25
315.574	12.25
316.366	10.25
317.157	11.25
317.949	10.25
318.74	11.25
319.531	11.25
320.322	10.25
321.113	10.25
321.904	10.25
322.695	11.25
323.486	7.25
324.277	10.25
325.068	10.25
325.858	8.25
326.649	9.25
327.439	7.25
328.23	9.25
329.02	8.25
329.81	7.25
330.6	10.25
331.391	8.25
332.181	7.25
332.971	6.25
333.76	9.25
334.55	9.25
335.34	6.25
336.13	11.25
336.919	8.25
337.709	8.25
338.498	8.25
339.287	7.25
340.077	8.25
340.866	8.25
341.655	9.25
342.444	10.25
343.233	8.25
344.022	8.25
344.811	7.25
345.6	8.25
346.388	8.25
347.177	8.25
347.965	10.25
348.754	4.25
349.542	6.25
350.33	5.25
351.119	7.25
351.907	8.25
352.695	6.25
353.483	9.25
354.271	7.25
355.059	9.25
355.846	6.25
356.634	8.25
357.422	8.25
358.209	4.25
358.997	7.25
359.784	6.25
360.571	7.25
361.359	7.25
362.146	8.25
362.933	8.25
363.72	5.25
364.507	7.25
365.294	5.25
366.081	6.25
366.867	7.25
367.654	3.25
368.44	7.25
369.227	7.25
370.013	7.25
370.8	7.25
371.586	6.25
372.372	8.25
373.158	7.25
373.944	8.25
374.73	7.25
375.516	6.25
376.302	8.25
377.088	6.25
377.873	9.25
378.659	6.25
379.445	7.25
380.23	10.25
381.015	5.25
381.801	6.25
382.586	5.25
383.371	6.25
384.156	8.25
384.941	6.25
385.726	7.25
386.511	7.25
387.296	9.25
388.08	7.25
388.865	7.25
389.649	6.25
390.434	7.25
391.218	8.25
392.003	6.25
392.787	6.25
393.571	8.25
394.355	7.25
395.139	6.25
395.923	7.25
396.707	8.25
397.491	6.25
398.274	9.25
399.058	9.25
399.842	6.25
400.625	10.25
401.408	7.25
402.192	12.25
402.975	10.25
403.758	8.25
404.541	12.25
405.324	9.25
406.107	11.25
406.89	11.25
407.673	7.25
408.456	9.25
409.238	10.25
410.021	9.25
410.803	8.25
411.586	10.25
412.368	10.25
413.151	9.25
413.933	13.25
414.715	9.25
415.497	13.25
416.279	12.25
417.061	13.25
417.843	13.25
418.624	12.25
419.406	11.25
420.188	14.25
420.969	14.25
421.751	14.25
422.532	14.25
423.313	15.25
424.095	16.25
424.876	17.25
425.657	17.25
426.438	15.25
427.219	17.25
428	16.25
428.78	18.25
429.561	17.25
430.342	18.25
431.122	21.25
431.903	17.25
432.683	21.25
433.464	23.25
434.244	21.25
435.024	25.25
435.804	27.25
436.584	26.25
437.364	27.25
438.144	29.25
438.924	29.25
439.704	30.25
440.483	32.25
441.263	36.25
442.042	40.25
442.822	39.25
443.601	46.25
444.38	48.25
445.16	49.25
445.939	57.25
446.718	59.25
447.497	67.25
448.276	69.25
449.054	79.25
449.833	87.25
450.612	89.25
451.391	100.25
452.169	108.25
452.948	121.25
453.726	131.25
454.504	147.25
455.282	164.25
456.061	179.25
456.839	201.25
457.617	229.25
458.395	252.25
459.172	284.25
459.95	307.25
460.728	343.25
461.506	383.25
462.283	430.25
463.061	485.25
463.838	524.25
464.615	585.25
465.393	653.25
466.17	719.25
466.947	824.25
467.724	896.25
468.501	992.25
469.278	1084.25
470.055	1223.25
470.831	1341.25
471.608	1457.25
472.385	1608.25
473.161	1777.25
473.938	1958.25
474.714	2169.25
475.49	2358.25
476.266	2600.25
477.043	2845.25
477.819	3094.25
478.595	3415.25
479.371	3736.25
480.146	4060.25
480.922	4466.25
481.698	4865.25
482.473	5279.25
483.249	5757.25
484.024	6297.25
484.8	6825.25
485.575	7408.25
486.35	8046.25
487.126	8772.25
487.901	9478.25
488.676	10323.25
489.451	11137.25
490.225	12006.25
491	12989.25
491.775	14035.25
492.55	15038.25
493.324	16236.25
494.099	17296.25
494.873	18469.25
495.647	19765.25
496.422	21070.25
497.196	22222.25
497.97	23607.25
498.744	24876.25
499.518	26208.25
500.292	27300.25
501.066	28356.25
501.839	29508.25
502.613	30601.25
503.387	31312.25
504.16	31953.25
504.934	32542.25
505.707	32727.25
506.48	32864.25
507.253	32834.25
508.027	32757.25
508.8	32390.25
509.573	32026.25
510.346	31334.25
511.118	30745.25
511.891	29953.25
512.664	29034.25
513.437	28062.25
514.209	27085.25
514.982	26187.25
515.754	25129.25
516.526	24204.25
517.298	23295.25
518.071	22296.25
518.843	21339.25
519.615	20576.25
520.387	19713.25
521.159	18952.25
521.93	18264.25
522.702	17530.25
523.474	16833.25
524.245	16232.25
525.017	15486.25
525.788	14783.25
526.56	14157.25
527.331	13514.25
528.102	12978.25
528.873	12355.25
529.644	11778.25
530.415	11245.25
531.186	10776.25
531.957	10233.25
532.728	9693.25
533.498	9195.25
534.269	8694.25
535.039	8244.25
535.81	7813.25
536.58	7385.25
537.351	6945.25
538.121	6575.25
538.891	6246.25
539.661	5941.25
540.431	5640.25
541.201	5295.25
541.971	5033.25
542.741	4786.25
543.51	4513.25
544.28	4318.25
545.05	4103.25
545.819	3892.25
546.588	3722.25
547.358	3536.25
548.127	3324.25
548.896	3190.25
549.665	3014.25
550.434	2855.25
551.203	2720.25
551.972	2569.25
552.741	2460.25
553.51	2313.25
554.278	2174.25
555.047	2061.25
555.815	1950.25
556.584	1838.25
557.352	1746.25
558.121	1657.25
558.889	1550.25
559.657	1470.25
560.425	1385.25
561.193	1308.25
561.961	1240.25
562.729	1183.25
563.496	1110.25
564.264	1062.25
565.032	1006.25
565.799	948.25
566.567	886.25
567.334	842.25
568.101	800.25
568.869	744.25
569.636	710.25
570.403	664.25
571.17	627.25
571.937	594.25
572.704	559.25
573.471	532.25
574.237	503.25
575.004	471.25
575.771	443.25
576.537	418.25
577.303	392.25
578.07	372.25
578.836	346.25
579.602	332.25
580.368	308.25
581.134	296.25
581.9	276.25
582.666	269.25
583.432	256.25
584.198	244.25
584.964	232.25
585.729	212.25
586.495	207.25
587.26	194.25
588.025	184.25
588.791	169.25
589.556	168.25
590.321	161.25
591.086	145.25
591.851	141.25
592.616	138.25
593.381	127.25
594.146	120.25
594.911	115.25
595.675	109.25
596.44	108.25
597.204	106.25
597.969	94.25
598.733	91.25
599.497	88.25
600.261	82.25
601.025	84.25
601.79	75.25
602.553	71.25
603.317	72.25
604.081	65.25
604.845	64.25
605.609	63.25
606.372	59.25
607.136	57.25
607.899	55.25
608.662	52.25
609.426	47.25
610.189	52.25
610.952	48.25
611.715	48.25
612.478	41.25
613.241	43.25
614.004	42.25
614.767	39.25
615.529	38.25
616.292	37.25
617.055	36.25
617.817	34.25
618.579	32.25
619.342	30.25
620.104	30.25
620.866	28.25
621.628	28.25
622.39	29.25
623.152	26.25
623.914	25.25
624.676	25.25
625.438	24.25
626.199	22.25
626.961	22.25
627.722	20.25
628.484	21.25
629.245	23.25
630.006	17.25
630.768	19.25
631.529	18.25
632.29	21.25
633.051	15.25
633.812	18.25
634.573	18.25
635.333	16.25
636.094	17.25
636.855	12.25
637.615	13.25
638.376	14.25
639.136	14.25
639.896	14.25
640.657	16.25
641.417	13.25
642.177	13.25
642.937	10.25
643.697	13.25
644.457	10.25
645.216	9.25
645.976	9.25
646.736	10.25
647.495	10.25
648.255	9.25
649.014	12.25
649.774	9.25
650.533	8.25
651.292	10.25
652.051	10.25
652.81	9.25
653.569	8.25
654.328	9.25
655.087	8.25
655.846	7.25
656.604	10.25
657.363	7.25
658.121	6.25
658.88	9.25
659.638	8.25
660.397	9.25
661.155	6.25
661.913	8.25
662.671	6.25
663.429	6.25
664.187	7.25
664.945	8.25
665.703	7.25
666.46	6.25
667.218	5.25
667.976	7.25
668.733	9.25
669.49	8.25
670.248	6.25
671.005	4.25
671.762	4.25
672.519	7.25
673.276	5.25
674.033	6.25
674.79	5.25
675.547	5.25
676.304	6.25
677.06	8.25
677.817	6.25
678.574	5.25
679.33	4.25
680.086	7.25
680.843	4.25
681.599	9.25
682.355	4.25
683.111	6.25
683.867	6.25
684.623	5.25
685.379	6.25
686.135	3.25
686.89	6.25
687.646	6.25
688.402	4.25
689.157	5.25
689.912	4.25
690.668	4.25
691.423	4.25
692.178	7.25
692.933	5.25
693.688	2.25
694.443	6.25
695.198	2.25
695.953	6.25
696.708	2.25
697.462	4.25
698.217	5.25
698.972	5.25
699.726	7.25
700.48	3.25
701.235	4.25
701.989	2.25
702.743	3.25
703.497	3.25
704.251	1.25
705.005	5.25
705.759	7.25
706.513	7.25
707.266	5.25
708.02	4.25
708.774	3.25
709.527	6.25
710.28	4.25
711.034	5.25
711.787	5.25
712.54	3.25
713.293	2.25
714.046	5.25
714.799	5.25
715.552	3.25
716.305	6.25
717.058	6.25
717.81	6.25
718.563	4.25
719.315	4.25
720.068	5.25
720.82	5.25
721.573	5.25
722.325	4.25
723.077	4.25
723.829	5.25
724.581	5.25
725.333	6.25
726.085	5.25
726.836	4.25
727.588	4.25
728.34	6.25
729.091	5.25
729.843	5.25
730.594	7.25
731.346	4.25
732.097	7.25
732.848	4.25
733.599	5.25
734.35	6.25
735.101	4.25
735.852	5.25
736.603	6.25
737.354	8.25
738.104	6.25
738.855	5.25
739.605	4.25
740.356	4.25
741.106	8.25
741.856	4.25
742.607	8.25
743.357	6.25
744.107	5.25
744.857	6.25
745.607	5.25
746.357	7.25
747.106	7.25
747.856	8.25
748.606	6.25
749.355	4.25
750.105	7.25
750.854	5.25
751.603	7.25
752.353	6.25
753.102	5.25
753.851	7.25
754.6	7.25
755.349	8.25
756.098	7.25
756.847	8.25
757.595	7.25
758.344	8.25
759.093	7.25
759.841	6.25
760.589	7.25
761.338	5.25
762.086	7.25
762.834	8.25
763.582	8.25
764.331	8.25
765.079	7.25
765.826	8.25
766.574	10.25
767.322	10.25
768.07	9.25
768.817	7.25
769.565	9.25
770.312	7.25
771.06	9.25
771.807	9.25
772.554	7.25
773.302	10.25
774.049	9.25
774.796	7.25
775.543	12.25
776.29	9.25
777.036	11.25
777.783	11.25
778.53	10.25
779.276	9.25
780.023	11.25
780.769	11.25
781.516	9.25
782.262	9.25
783.008	11.25
783.754	10.25
784.5	10.25
785.246	10.25
785.992	10.25
786.738	12.25
787.484	10.25
788.23	10.25
788.975	11.25
789.721	9.25
790.466	9.25
791.212	8.25
791.957	10.25
792.702	10.25
793.447	11.25
794.193	10.25
794.938	12.25
795.683	8.25
796.427	8.25
797.172	9.25
797.917	9.25
798.662	9.25
799.406	9.25
800.151	8.25
800.895	7.25
801.64	9.25
802.384	8.25
803.128	11.25
803.872	11.25
804.616	8.25
805.36	7.25
806.104	7.25
806.848	6.25
807.592	6.25
808.336	8.25
809.079	4.25
809.823	8.25
810.566	7.25
811.31	4.25
812.053	7.25
812.796	7.25
813.539	6.25
814.283	7.25
815.026	7.25
815.769	3.25
816.511	8.25
817.254	4.25
817.997	6.25
818.74	5.25
819.482	5.25
820.225	7.25
820.967	8.25
821.71	7.25
822.452	6.25
823.194	5.25
823.936	5.25
824.678	4.25
825.42	6.25
826.162	4.25
826.904	4.25
827.646	4.25
828.388	3.25
829.129	5.25
829.871	6.25
830.612	5.25
831.354	2.25
832.095	5.25
832.836	2.25
833.577	6.25
834.319	6.25
835.06	4.25
835.801	2.25
836.542	4.25
837.282	4.25
838.023	3.25
838.764	3.25
839.504	4.25
840.245	3.25
840.985	5.25
841.726	3.25
842.466	7.25
843.206	3.25
843.946	4.25
844.687	2.25
845.427	3.25
846.166	2.25
846.906	2.25
847.646	2.25
848.386	6.25
849.125	3.25
849.865	5.25
850.605	3.25
851.344	2.25
852.083	2.25
852.823	4.25
853.562	3.25
854.301	2.25
855.04	4.25
855.779	0.25
856.518	3.25
857.257	3.25
857.995	3.25
858.734	2.25
859.473	2.25
860.211	2.25
860.95	3.25
861.688	2.25
862.426	3.25
863.165	0.25
863.903	2.25
864.641	3.25
865.379	4.25
866.117	0.25
866.855	3.25
867.593	2.25
868.33	1.25
869.068	1.25
869.806	2.25
870.543	3.25
871.28	1.25
872.018	3.25
872.755	2.25
873.492	2.25
874.229	2.25
874.967	1.25
875.703	1.25
876.44	4.25
877.177	1.25
877.914	0.25
878.651	2.25
879.387	-0.75
880.124	1.25
880.86	1.25
881.597	2.25
882.333	2.25
883.069	2.25
883.806	0.25
884.542	2.25
885.278	1.25
886.014	0.25
886.749	0.25
887.485	0.25
888.221	0.25
888.957	0.25
889.692	-0.75
890.428	2.25
891.163	-0.75
891.899	2.25
892.634	1.25
893.369	0.25
894.104	1.25
894.839	0.25
895.574	1.25
896.309	2.25
897.044	-0.75
897.779	2.25
898.514	0.25
899.248	0.25
899.983	-0.75
900.717	0.25
901.452	2.25
902.186	-0.75
902.92	2.25
903.654	2.25
904.389	1.25
905.123	-0.75
905.857	-0.75
906.59	3.25
907.324	0.25
908.058	1.25
908.792	0.25
909.525	1.25
910.259	0.25
910.992	0.25
911.726	-0.75
912.459	0.25
913.192	1.25
913.925	0.25
914.658	0.25
915.391	1.25
916.124	1.25
916.857	-0.75
917.59	-0.75
918.323	-1.75
919.055	2.25
919.788	0.25
920.521	1.25
921.253	0.25
921.985	-1.75
922.718	3.25
923.45	-3.75
924.182	-0.75
924.914	1.25
925.646	-0.75
926.378	1.25
927.11	0.25
927.841	0.25
928.573	-0.75
929.305	2.25
930.036	1.25
930.768	-0.75
931.499	2.25
932.23	1.25
932.962	1.25
933.693	0.25
934.424	2.25
935.155	-0.75
935.886	0.25
936.617	-0.75
937.348	-0.75
938.078	2.25
938.809	0.25
939.54	0.25
940.27	1.25
941.001	-1.75
941.731	-0.75
942.461	0.25
943.191	0.25
943.922	-0.75
944.652	1.25
945.382	0.25
946.112	0.25
946.841	0.25
947.571	-1.75
948.301	1.25
949.031	0.25
949.76	-1.75
950.49	0.25
951.219	-1.75
951.948	0.25
952.678	-1.75
953.407	0.25
954.136	1.25
954.865	-0.75
955.594	1.25
956.323	-0.75
957.052	-0.75
957.78	2.25
958.509	-1.75
959.238	-1.75
959.966	1.25
960.695	0.25
961.423	-1.75
962.151	0.25
962.88	2.25
963.608	0.25
964.336	-0.75
965.064	-1.75
965.792	-0.75
966.52	0.25
967.247	-2.75
967.975	2.25
968.703	0.25
969.43	1.25
970.158	2.25
970.885	1.25
971.613	-0.75
972.34	1.25
973.067	0.25
973.794	-2.75
974.521	-0.75
975.248	1.25
975.975	-0.75
976.702	1.25
977.429	-0.75
978.156	0.25
978.882	0.25
979.609	1.25
980.335	1.25
981.062	0.25
981.788	0.25
982.514	0.25
983.24	0.25
983.967	0.25
984.693	-0.75
985.419	1.25
986.144	-0.75
986.87	-1.75
987.596	-0.75
988.322	0.25
989.047	1.25
989.773	0.25
990.498	-0.75
991.224	-0.75
991.949	1.25
992.674	1.25
993.399	2.25
994.124	-1.75
994.849	-1.75
995.574	0.25
996.299	0.25
997.024	0.25
997.749	0.25
998.473	0.25
999.198	1.25
999.922	-1.75
1000.647	-0.75
1001.371	4.25
1002.095	-0.75
1002.82	-2.75
1003.544	-0.75
1004.268	5.25
1004.992	2.25
1005.716	2.25
1006.439	4.25
1007.163	2.25
1007.887	3.25
1008.611	-0.75
1009.334	-1.75
1010.058	0.25
1010.781	-1.75
1011.504	2.25
1012.228	-0.75
1012.951	2.25
1013.674	0.25
1014.397	-0.75
1015.12	-1.75
