节点500_425_QEPB04081__204__15-51-42-111.txt的数据

Date: Wed Nov 12 15:51:42 CST 2025
User: PC
Spectrometer: QEPB0408
触发模式: 0
积分时间 (秒): 1.000000E-2
Scans to average: 1
启用暗噪声校正: true
启用非线性校正: false
滑动平均宽度: 0
X轴模式: Wavelengths
Number of Pixels in Spectrum: 1044
>>>>>Begin Spectral Data<<<<<
220.843	-0.62
221.644	-1.62
222.444	2.38
223.244	2.38
224.045	3.38
224.845	3.38
225.645	1.38
226.445	4.38
227.245	4.38
228.045	3.38
228.845	3.38
229.645	3.38
230.444	4.38
231.244	6.38
232.043	3.38
232.843	3.38
233.642	4.38
234.442	4.38
235.241	4.38
236.04	5.38
236.839	3.38
237.638	5.38
238.437	6.38
239.236	6.38
240.035	4.38
240.833	5.38
241.632	6.38
242.43	7.38
243.229	7.38
244.027	7.38
244.826	9.38
245.624	6.38
246.422	8.38
247.22	8.38
248.018	7.38
248.816	9.38
249.614	9.38
250.412	9.38
251.21	12.38
252.007	9.38
252.805	9.38
253.602	10.38
254.4	11.38
255.197	12.38
255.994	12.38
256.791	11.38
257.589	13.38
258.386	12.38
259.183	12.38
259.979	15.38
260.776	14.38
261.573	17.38
262.37	15.38
263.166	14.38
263.963	14.38
264.759	18.38
265.556	14.38
266.352	18.38
267.148	18.38
267.944	19.38
268.74	18.38
269.536	18.38
270.332	22.38
271.128	20.38
271.924	24.38
272.719	20.38
273.515	21.38
274.311	24.38
275.106	22.38
275.901	19.38
276.697	24.38
277.492	22.38
278.287	23.38
279.082	24.38
279.877	25.38
280.672	22.38
281.467	24.38
282.262	25.38
283.056	25.38
283.851	26.38
284.646	27.38
285.44	23.38
286.234	24.38
287.029	26.38
287.823	23.38
288.617	23.38
289.411	25.38
290.205	22.38
290.999	21.38
291.793	25.38
292.587	22.38
293.381	20.38
294.174	23.38
294.968	21.38
295.761	21.38
296.555	17.38
297.348	21.38
298.141	18.38
298.935	19.38
299.728	18.38
300.521	17.38
301.314	18.38
302.107	14.38
302.899	17.38
303.692	16.38
304.485	14.38
305.277	16.38
306.07	13.38
306.862	15.38
307.655	16.38
308.447	17.38
309.239	14.38
310.031	13.38
310.823	11.38
311.615	12.38
312.407	13.38
313.199	11.38
313.991	10.38
314.783	12.38
315.574	10.38
316.366	9.38
317.157	8.38
317.949	12.38
318.74	8.38
319.531	9.38
320.322	9.38
321.113	9.38
321.904	9.38
322.695	8.38
323.486	7.38
324.277	11.38
325.068	7.38
325.858	9.38
326.649	9.38
327.439	9.38
328.23	7.38
329.02	6.38
329.81	8.38
330.6	7.38
331.391	7.38
332.181	7.38
332.971	5.38
333.76	10.38
334.55	8.38
335.34	11.38
336.13	6.38
336.919	9.38
337.709	11.38
338.498	8.38
339.287	9.38
340.077	8.38
340.866	8.38
341.655	7.38
342.444	4.38
343.233	7.38
344.022	7.38
344.811	9.38
345.6	7.38
346.388	7.38
347.177	7.38
347.965	9.38
348.754	6.38
349.542	6.38
350.33	8.38
351.119	8.38
351.907	9.38
352.695	7.38
353.483	6.38
354.271	8.38
355.059	5.38
355.846	4.38
356.634	9.38
357.422	7.38
358.209	6.38
358.997	6.38
359.784	6.38
360.571	8.38
361.359	5.38
362.146	7.38
362.933	6.38
363.72	5.38
364.507	4.38
365.294	4.38
366.081	6.38
366.867	5.38
367.654	5.38
368.44	6.38
369.227	4.38
370.013	6.38
370.8	5.38
371.586	7.38
372.372	8.38
373.158	6.38
373.944	8.38
374.73	5.38
375.516	6.38
376.302	4.38
377.088	6.38
377.873	8.38
378.659	5.38
379.445	6.38
380.23	7.38
381.015	5.38
381.801	6.38
382.586	6.38
383.371	6.38
384.156	8.38
384.941	8.38
385.726	7.38
386.511	6.38
387.296	6.38
388.08	5.38
388.865	7.38
389.649	7.38
390.434	7.38
391.218	5.38
392.003	7.38
392.787	7.38
393.571	9.38
394.355	5.38
395.139	4.38
395.923	8.38
396.707	8.38
397.491	7.38
398.274	8.38
399.058	7.38
399.842	8.38
400.625	8.38
401.408	9.38
402.192	7.38
402.975	9.38
403.758	10.38
404.541	9.38
405.324	11.38
406.107	8.38
406.89	11.38
407.673	10.38
408.456	10.38
409.238	9.38
410.021	12.38
410.803	12.38
411.586	10.38
412.368	11.38
413.151	11.38
413.933	9.38
414.715	11.38
415.497	11.38
416.279	13.38
417.061	14.38
417.843	13.38
418.624	12.38
419.406	13.38
420.188	14.38
420.969	12.38
421.751	13.38
422.532	13.38
423.313	18.38
424.095	16.38
424.876	16.38
425.657	15.38
426.438	14.38
427.219	15.38
428	17.38
428.78	16.38
429.561	20.38
430.342	19.38
431.122	21.38
431.903	19.38
432.683	21.38
433.464	23.38
434.244	24.38
435.024	23.38
435.804	25.38
436.584	23.38
437.364	25.38
438.144	29.38
438.924	30.38
439.704	30.38
440.483	34.38
441.263	36.38
442.042	36.38
442.822	40.38
443.601	44.38
444.38	44.38
445.16	50.38
445.939	56.38
446.718	56.38
447.497	57.38
448.276	67.38
449.054	68.38
449.833	73.38
450.612	85.38
451.391	88.38
452.169	99.38
452.948	109.38
453.726	118.38
454.504	136.38
455.282	147.38
456.061	159.38
456.839	184.38
457.617	206.38
458.395	218.38
459.172	251.38
459.95	278.38
460.728	316.38
461.506	348.38
462.283	388.38
463.061	434.38
463.838	497.38
464.615	548.38
465.393	606.38
466.17	683.38
466.947	751.38
467.724	840.38
468.501	934.38
469.278	1036.38
470.055	1171.38
470.831	1282.38
471.608	1440.38
472.385	1578.38
473.161	1763.38
473.938	1925.38
474.714	2156.38
475.49	2369.38
476.266	2623.38
477.043	2903.38
477.819	3190.38
478.595	3535.38
479.371	3878.38
480.146	4267.38
480.922	4692.38
481.698	5139.38
482.473	5615.38
483.249	6219.38
484.024	6809.38
484.8	7489.38
485.575	8148.38
486.35	8888.38
487.126	9725.38
487.901	10643.38
488.676	11613.38
489.451	12663.38
490.225	13728.38
491	14944.38
491.775	16197.38
492.55	17490.38
493.324	18834.38
494.099	20249.38
494.873	21563.38
495.647	23097.38
496.422	24557.38
497.196	26045.38
497.97	27608.38
498.744	29031.38
499.518	30414.38
500.292	31652.38
501.066	32762.38
501.839	33914.38
502.613	34780.38
503.387	35430.38
504.16	35909.38
504.934	36062.38
505.707	36144.38
506.48	35997.38
507.253	35613.38
508.027	35124.38
508.8	34402.38
509.573	33649.38
510.346	32804.38
511.118	31826.38
511.891	30801.38
512.664	29531.38
513.437	28372.38
514.209	27184.38
514.982	26174.38
515.754	25053.38
516.526	23965.38
517.298	22936.38
518.071	21982.38
518.843	21074.38
519.615	20185.38
520.387	19377.38
521.159	18658.38
521.93	17965.38
522.702	17234.38
523.474	16553.38
524.245	15886.38
525.017	15133.38
525.788	14434.38
526.56	13774.38
527.331	13164.38
528.102	12532.38
528.873	11927.38
529.644	11384.38
530.415	10828.38
531.186	10312.38
531.957	9764.38
532.728	9200.38
533.498	8671.38
534.269	8213.38
535.039	7816.38
535.81	7364.38
536.58	6947.38
537.351	6542.38
538.121	6184.38
538.891	5832.38
539.661	5531.38
540.431	5244.38
541.201	4960.38
541.971	4737.38
542.741	4500.38
543.51	4248.38
544.28	4045.38
545.05	3852.38
545.819	3688.38
546.588	3483.38
547.358	3273.38
548.127	3101.38
548.896	2944.38
549.665	2802.38
550.434	2669.38
551.203	2527.38
551.972	2394.38
552.741	2263.38
553.51	2136.38
554.278	2000.38
555.047	1905.38
555.815	1790.38
556.584	1698.38
557.352	1600.38
558.121	1500.38
558.889	1423.38
559.657	1353.38
560.425	1261.38
561.193	1209.38
561.961	1136.38
562.729	1087.38
563.496	1017.38
564.264	969.38
565.032	912.38
565.799	861.38
566.567	813.38
567.334	767.38
568.101	729.38
568.869	685.38
569.636	639.38
570.403	615.38
571.17	570.38
571.937	550.38
572.704	513.38
573.471	489.38
574.237	456.38
575.004	431.38
575.771	399.38
576.537	379.38
577.303	355.38
578.07	340.38
578.836	323.38
579.602	294.38
580.368	290.38
581.134	267.38
581.9	258.38
582.666	244.38
583.432	229.38
584.198	223.38
584.964	211.38
585.729	199.38
586.495	187.38
587.26	180.38
588.025	170.38
588.791	160.38
589.556	155.38
590.321	138.38
591.086	140.38
591.851	130.38
592.616	118.38
593.381	118.38
594.146	111.38
594.911	109.38
595.675	104.38
596.44	99.38
597.204	96.38
597.969	84.38
598.733	82.38
599.497	79.38
600.261	76.38
601.025	73.38
601.79	72.38
602.553	69.38
603.317	64.38
604.081	64.38
604.845	58.38
605.609	57.38
606.372	54.38
607.136	53.38
607.899	49.38
608.662	47.38
609.426	48.38
610.189	46.38
610.952	43.38
611.715	39.38
612.478	41.38
613.241	37.38
614.004	37.38
614.767	34.38
615.529	37.38
616.292	32.38
617.055	32.38
617.817	29.38
618.579	30.38
619.342	29.38
620.104	27.38
620.866	28.38
621.628	25.38
622.39	27.38
623.152	24.38
623.914	20.38
624.676	24.38
625.438	23.38
626.199	21.38
626.961	21.38
627.722	20.38
628.484	21.38
629.245	17.38
630.006	16.38
630.768	16.38
631.529	18.38
632.29	17.38
633.051	17.38
633.812	16.38
634.573	13.38
635.333	14.38
636.094	16.38
636.855	15.38
637.615	13.38
638.376	11.38
639.136	14.38
639.896	13.38
640.657	12.38
641.417	13.38
642.177	11.38
642.937	11.38
643.697	11.38
644.457	12.38
645.216	11.38
645.976	13.38
646.736	10.38
647.495	9.38
648.255	11.38
649.014	9.38
649.774	10.38
650.533	7.38
651.292	10.38
652.051	10.38
652.81	9.38
653.569	10.38
654.328	9.38
655.087	8.38
655.846	8.38
656.604	6.38
657.363	8.38
658.121	9.38
658.88	8.38
659.638	4.38
660.397	9.38
661.155	6.38
661.913	4.38
662.671	7.38
663.429	5.38
664.187	6.38
664.945	7.38
665.703	5.38
666.46	10.38
667.218	5.38
667.976	6.38
668.733	7.38
669.49	7.38
670.248	5.38
671.005	4.38
671.762	6.38
672.519	6.38
673.276	6.38
674.033	5.38
674.79	5.38
675.547	4.38
676.304	4.38
677.06	5.38
677.817	4.38
678.574	3.38
679.33	4.38
680.086	6.38
680.843	3.38
681.599	3.38
682.355	5.38
683.111	5.38
683.867	5.38
684.623	6.38
685.379	4.38
686.135	3.38
686.89	6.38
687.646	5.38
688.402	5.38
689.157	3.38
689.912	6.38
690.668	4.38
691.423	7.38
692.178	4.38
692.933	4.38
693.688	1.38
694.443	2.38
695.198	4.38
695.953	6.38
696.708	3.38
697.462	3.38
698.217	2.38
698.972	4.38
699.726	4.38
700.48	5.38
701.235	2.38
701.989	5.38
702.743	5.38
703.497	5.38
704.251	3.38
705.005	5.38
705.759	3.38
706.513	3.38
707.266	4.38
708.02	4.38
708.774	5.38
709.527	2.38
710.28	6.38
711.034	3.38
711.787	6.38
712.54	2.38
713.293	3.38
714.046	3.38
714.799	4.38
715.552	4.38
716.305	4.38
717.058	5.38
717.81	3.38
718.563	3.38
719.315	4.38
720.068	2.38
720.82	3.38
721.573	3.38
722.325	7.38
723.077	4.38
723.829	6.38
724.581	5.38
725.333	2.38
726.085	5.38
726.836	2.38
727.588	4.38
728.34	5.38
729.091	5.38
729.843	4.38
730.594	7.38
731.346	4.38
732.097	5.38
732.848	4.38
733.599	5.38
734.35	4.38
735.101	6.38
735.852	3.38
736.603	4.38
737.354	5.38
738.104	5.38
738.855	5.38
739.605	4.38
740.356	6.38
741.106	4.38
741.856	9.38
742.607	5.38
743.357	5.38
744.107	7.38
744.857	4.38
745.607	9.38
746.357	8.38
747.106	6.38
747.856	6.38
748.606	6.38
749.355	7.38
750.105	5.38
750.854	6.38
751.603	6.38
752.353	6.38
753.102	7.38
753.851	7.38
754.6	9.38
755.349	7.38
756.098	6.38
756.847	8.38
757.595	8.38
758.344	9.38
759.093	5.38
759.841	8.38
760.589	7.38
761.338	10.38
762.086	9.38
762.834	8.38
763.582	8.38
764.331	8.38
765.079	8.38
765.826	6.38
766.574	6.38
767.322	10.38
768.07	10.38
768.817	11.38
769.565	9.38
770.312	9.38
771.06	8.38
771.807	11.38
772.554	12.38
773.302	10.38
774.049	8.38
774.796	11.38
775.543	8.38
776.29	10.38
777.036	12.38
777.783	11.38
778.53	10.38
779.276	11.38
780.023	11.38
780.769	10.38
781.516	11.38
782.262	11.38
783.008	11.38
783.754	12.38
784.5	11.38
785.246	13.38
785.992	11.38
786.738	8.38
787.484	9.38
788.23	10.38
788.975	10.38
789.721	8.38
790.466	12.38
791.212	11.38
791.957	10.38
792.702	9.38
793.447	8.38
794.193	13.38
794.938	10.38
795.683	11.38
796.427	10.38
797.172	10.38
797.917	9.38
798.662	11.38
799.406	11.38
800.151	6.38
800.895	10.38
801.64	7.38
802.384	10.38
803.128	7.38
803.872	6.38
804.616	9.38
805.36	10.38
806.104	5.38
806.848	6.38
807.592	8.38
808.336	7.38
809.079	6.38
809.823	6.38
810.566	7.38
811.31	5.38
812.053	7.38
812.796	5.38
813.539	7.38
814.283	7.38
815.026	6.38
815.769	6.38
816.511	7.38
817.254	6.38
817.997	8.38
818.74	4.38
819.482	2.38
820.225	6.38
820.967	9.38
821.71	5.38
822.452	5.38
823.194	3.38
823.936	4.38
824.678	6.38
825.42	4.38
826.162	4.38
826.904	3.38
827.646	4.38
828.388	7.38
829.129	4.38
829.871	3.38
830.612	3.38
831.354	7.38
832.095	4.38
832.836	2.38
833.577	4.38
834.319	2.38
835.06	4.38
835.801	2.38
836.542	2.38
837.282	3.38
838.023	2.38
838.764	4.38
839.504	3.38
840.245	2.38
840.985	4.38
841.726	2.38
842.466	0.38
843.206	4.38
843.946	4.38
844.687	2.38
845.427	5.38
846.166	2.38
846.906	2.38
847.646	1.38
848.386	2.38
849.125	5.38
849.865	2.38
850.605	2.38
851.344	3.38
852.083	2.38
852.823	1.38
853.562	4.38
854.301	3.38
855.04	3.38
855.779	1.38
856.518	1.38
857.257	2.38
857.995	4.38
858.734	1.38
859.473	2.38
860.211	3.38
860.95	2.38
861.688	1.38
862.426	1.38
863.165	2.38
863.903	4.38
864.641	1.38
865.379	3.38
866.117	-0.62
866.855	2.38
867.593	3.38
868.33	-0.62
869.068	1.38
869.806	-1.62
870.543	3.38
871.28	2.38
872.018	1.38
872.755	1.38
873.492	-0.62
874.229	1.38
874.967	1.38
875.703	4.38
876.44	1.38
877.177	-0.62
877.914	-1.62
878.651	-0.62
879.387	-1.62
880.124	-0.62
880.86	-2.62
881.597	0.38
882.333	0.38
883.069	1.38
883.806	1.38
884.542	-0.62
885.278	1.38
886.014	-0.62
886.749	-2.62
887.485	-0.62
888.221	-1.62
888.957	-0.62
889.692	-1.62
890.428	0.38
891.163	-1.62
891.899	1.38
892.634	-0.62
893.369	2.38
894.104	-0.62
894.839	0.38
895.574	1.38
896.309	1.38
897.044	2.38
897.779	-1.62
898.514	0.38
899.248	-0.62
899.983	0.38
900.717	1.38
901.452	0.38
902.186	3.38
902.92	1.38
903.654	-0.62
904.389	-3.62
905.123	-1.62
905.857	0.38
906.59	0.38
907.324	1.38
908.058	-0.62
908.792	-1.62
909.525	2.38
910.259	-1.62
910.992	-0.62
911.726	2.38
912.459	0.38
913.192	-0.62
913.925	-0.62
914.658	-0.62
915.391	-1.62
916.124	-0.62
916.857	-1.62
917.59	-1.62
918.323	-0.62
919.055	-0.62
919.788	-0.62
920.521	-1.62
921.253	1.38
921.985	-1.62
922.718	1.38
923.45	-0.62
924.182	-1.62
924.914	0.38
925.646	-0.62
926.378	0.38
927.11	0.38
927.841	0.38
928.573	2.38
929.305	-2.62
930.036	1.38
930.768	-0.62
931.499	-0.62
932.23	0.38
932.962	0.38
933.693	-0.62
934.424	-1.62
935.155	-0.62
935.886	1.38
936.617	0.38
937.348	-0.62
938.078	0.38
938.809	0.38
939.54	-1.62
940.27	-0.62
941.001	-1.62
941.731	-1.62
942.461	1.38
943.191	-1.62
943.922	1.38
944.652	0.38
945.382	-0.62
946.112	2.38
946.841	-2.62
947.571	1.38
948.301	-0.62
949.031	-1.62
949.76	-0.62
950.49	-0.62
951.219	-2.62
951.948	-0.62
952.678	-0.62
953.407	-0.62
954.136	-0.62
954.865	2.38
955.594	-0.62
956.323	0.38
957.052	-0.62
957.78	-1.62
958.509	2.38
959.238	-1.62
959.966	-0.62
960.695	1.38
961.423	-2.62
962.151	-2.62
962.88	-0.62
963.608	-0.62
964.336	1.38
965.064	2.38
965.792	0.38
966.52	-2.62
967.247	1.38
967.975	-1.62
968.703	0.38
969.43	0.38
970.158	-0.62
970.885	1.38
971.613	-0.62
972.34	-0.62
973.067	0.38
973.794	1.38
974.521	-0.62
975.248	0.38
975.975	0.38
976.702	-1.62
977.429	-0.62
978.156	1.38
978.882	0.38
979.609	-0.62
980.335	-2.62
981.062	-0.62
981.788	-0.62
982.514	-0.62
983.24	-1.62
983.967	0.38
984.693	-1.62
985.419	-0.62
986.144	1.38
986.87	0.38
987.596	-1.62
988.322	1.38
989.047	-1.62
989.773	-0.62
990.498	-0.62
991.224	0.38
991.949	-0.62
992.674	0.38
993.399	0.38
994.124	-1.62
994.849	-0.62
995.574	0.38
996.299	-2.62
997.024	-1.62
997.749	-1.62
998.473	-0.62
999.198	-0.62
999.922	2.38
1000.647	0.38
1001.371	3.38
1002.095	0.38
1002.82	-0.62
1003.544	-2.62
1004.268	2.38
1004.992	3.38
1005.716	0.38
1006.439	2.38
1007.163	3.38
1007.887	1.38
1008.611	-0.62
1009.334	1.38
1010.058	-0.62
1010.781	-0.62
1011.504	-1.62
1012.228	-0.62
1012.951	-0.62
1013.674	-1.62
1014.397	0.38
1015.12	1.38
