节点500_425_QEPB04081__242__15-52-19-983.txt的数据

Date: Wed Nov 12 15:52:19 CST 2025
User: PC
Spectrometer: QEPB0408
触发模式: 0
积分时间 (秒): 1.000000E-2
Scans to average: 1
启用暗噪声校正: true
启用非线性校正: false
滑动平均宽度: 0
X轴模式: Wavelengths
Number of Pixels in Spectrum: 1044
>>>>>Begin Spectral Data<<<<<
220.843	3.75
221.644	0.75
222.444	2.75
223.244	2.75
224.045	3.75
224.845	4.75
225.645	3.75
226.445	4.75
227.245	4.75
228.045	6.75
228.845	4.75
229.645	3.75
230.444	5.75
231.244	4.75
232.043	6.75
232.843	1.75
233.642	5.75
234.442	4.75
235.241	3.75
236.04	6.75
236.839	4.75
237.638	7.75
238.437	8.75
239.236	7.75
240.035	6.75
240.833	5.75
241.632	6.75
242.43	5.75
243.229	7.75
244.027	7.75
244.826	8.75
245.624	11.75
246.422	8.75
247.22	7.75
248.018	10.75
248.816	10.75
249.614	8.75
250.412	8.75
251.21	10.75
252.007	10.75
252.805	11.75
253.602	8.75
254.4	8.75
255.197	9.75
255.994	13.75
256.791	12.75
257.589	11.75
258.386	9.75
259.183	14.75
259.979	13.75
260.776	13.75
261.573	11.75
262.37	16.75
263.166	13.75
263.963	16.75
264.759	15.75
265.556	14.75
266.352	17.75
267.148	19.75
267.944	17.75
268.74	19.75
269.536	18.75
270.332	19.75
271.128	20.75
271.924	23.75
272.719	19.75
273.515	19.75
274.311	22.75
275.106	20.75
275.901	22.75
276.697	21.75
277.492	23.75
278.287	24.75
279.082	23.75
279.877	23.75
280.672	20.75
281.467	25.75
282.262	25.75
283.056	23.75
283.851	23.75
284.646	23.75
285.44	26.75
286.234	21.75
287.029	24.75
287.823	22.75
288.617	23.75
289.411	19.75
290.205	24.75
290.999	22.75
291.793	21.75
292.587	20.75
293.381	18.75
294.174	19.75
294.968	21.75
295.761	20.75
296.555	17.75
297.348	19.75
298.141	16.75
298.935	20.75
299.728	17.75
300.521	19.75
301.314	18.75
302.107	17.75
302.899	16.75
303.692	17.75
304.485	17.75
305.277	14.75
306.07	14.75
306.862	14.75
307.655	12.75
308.447	15.75
309.239	16.75
310.031	16.75
310.823	12.75
311.615	10.75
312.407	13.75
313.199	13.75
313.991	12.75
314.783	8.75
315.574	10.75
316.366	11.75
317.157	10.75
317.949	11.75
318.74	8.75
319.531	8.75
320.322	11.75
321.113	8.75
321.904	10.75
322.695	9.75
323.486	10.75
324.277	10.75
325.068	8.75
325.858	9.75
326.649	8.75
327.439	9.75
328.23	10.75
329.02	9.75
329.81	6.75
330.6	7.75
331.391	9.75
332.181	7.75
332.971	6.75
333.76	7.75
334.55	7.75
335.34	9.75
336.13	6.75
336.919	8.75
337.709	5.75
338.498	8.75
339.287	8.75
340.077	7.75
340.866	10.75
341.655	8.75
342.444	9.75
343.233	8.75
344.022	6.75
344.811	6.75
345.6	8.75
346.388	8.75
347.177	5.75
347.965	7.75
348.754	7.75
349.542	6.75
350.33	6.75
351.119	9.75
351.907	7.75
352.695	7.75
353.483	3.75
354.271	8.75
355.059	7.75
355.846	8.75
356.634	6.75
357.422	7.75
358.209	8.75
358.997	7.75
359.784	8.75
360.571	4.75
361.359	7.75
362.146	7.75
362.933	8.75
363.72	6.75
364.507	7.75
365.294	8.75
366.081	8.75
366.867	8.75
367.654	6.75
368.44	7.75
369.227	6.75
370.013	6.75
370.8	6.75
371.586	6.75
372.372	3.75
373.158	7.75
373.944	5.75
374.73	6.75
375.516	7.75
376.302	5.75
377.088	6.75
377.873	2.75
378.659	6.75
379.445	5.75
380.23	6.75
381.015	6.75
381.801	7.75
382.586	8.75
383.371	5.75
384.156	8.75
384.941	9.75
385.726	7.75
386.511	8.75
387.296	9.75
388.08	7.75
388.865	6.75
389.649	8.75
390.434	9.75
391.218	9.75
392.003	8.75
392.787	7.75
393.571	6.75
394.355	8.75
395.139	7.75
395.923	8.75
396.707	8.75
397.491	7.75
398.274	9.75
399.058	8.75
399.842	11.75
400.625	9.75
401.408	10.75
402.192	8.75
402.975	9.75
403.758	9.75
404.541	9.75
405.324	9.75
406.107	9.75
406.89	9.75
407.673	11.75
408.456	12.75
409.238	12.75
410.021	7.75
410.803	11.75
411.586	11.75
412.368	11.75
413.151	10.75
413.933	10.75
414.715	11.75
415.497	9.75
416.279	12.75
417.061	11.75
417.843	11.75
418.624	13.75
419.406	14.75
420.188	14.75
420.969	12.75
421.751	14.75
422.532	12.75
423.313	15.75
424.095	13.75
424.876	15.75
425.657	17.75
426.438	17.75
427.219	14.75
428	16.75
428.78	14.75
429.561	18.75
430.342	18.75
431.122	20.75
431.903	20.75
432.683	21.75
433.464	22.75
434.244	21.75
435.024	23.75
435.804	24.75
436.584	25.75
437.364	25.75
438.144	27.75
438.924	28.75
439.704	28.75
440.483	30.75
441.263	28.75
442.042	33.75
442.822	37.75
443.601	40.75
444.38	40.75
445.16	45.75
445.939	46.75
446.718	52.75
447.497	56.75
448.276	60.75
449.054	67.75
449.833	72.75
450.612	80.75
451.391	84.75
452.169	94.75
452.948	103.75
453.726	111.75
454.504	125.75
455.282	134.75
456.061	153.75
456.839	173.75
457.617	190.75
458.395	210.75
459.172	235.75
459.95	262.75
460.728	290.75
461.506	328.75
462.283	365.75
463.061	402.75
463.838	465.75
464.615	514.75
465.393	583.75
466.17	641.75
466.947	704.75
467.724	787.75
468.501	877.75
469.278	965.75
470.055	1076.75
470.831	1181.75
471.608	1327.75
472.385	1496.75
473.161	1636.75
473.938	1815.75
474.714	1998.75
475.49	2216.75
476.266	2429.75
477.043	2675.75
477.819	2960.75
478.595	3276.75
479.371	3583.75
480.146	3944.75
480.922	4345.75
481.698	4771.75
482.473	5252.75
483.249	5734.75
484.024	6313.75
484.8	6888.75
485.575	7553.75
486.35	8232.75
487.126	8988.75
487.901	9808.75
488.676	10741.75
489.451	11627.75
490.225	12680.75
491	13758.75
491.775	14878.75
492.55	16079.75
493.324	17363.75
494.099	18592.75
494.873	19886.75
495.647	21184.75
496.422	22563.75
497.196	23949.75
497.97	25341.75
498.744	26669.75
499.518	27923.75
500.292	29090.75
501.066	30170.75
501.839	31144.75
502.613	32019.75
503.387	32746.75
504.16	33193.75
504.934	33354.75
505.707	33364.75
506.48	33221.75
507.253	32829.75
508.027	32502.75
508.8	31838.75
509.573	31186.75
510.346	30337.75
511.118	29388.75
511.891	28503.75
512.664	27406.75
513.437	26322.75
514.209	25210.75
514.982	24295.75
515.754	23311.75
516.526	22255.75
517.298	21326.75
518.071	20395.75
518.843	19595.75
519.615	18746.75
520.387	18063.75
521.159	17385.75
521.93	16661.75
522.702	16043.75
523.474	15385.75
524.245	14768.75
525.017	14094.75
525.788	13422.75
526.56	12790.75
527.331	12235.75
528.102	11664.75
528.873	11080.75
529.644	10574.75
530.415	10028.75
531.186	9609.75
531.957	9064.75
532.728	8572.75
533.498	8122.75
534.269	7657.75
535.039	7255.75
535.81	6844.75
536.58	6482.75
537.351	6095.75
538.121	5756.75
538.891	5459.75
539.661	5168.75
540.431	4899.75
541.201	4664.75
541.971	4398.75
542.741	4164.75
543.51	3957.75
544.28	3760.75
545.05	3564.75
545.819	3454.75
546.588	3248.75
547.358	3061.75
548.127	2912.75
548.896	2736.75
549.665	2617.75
550.434	2504.75
551.203	2341.75
551.972	2233.75
552.741	2121.75
553.51	1993.75
554.278	1871.75
555.047	1765.75
555.815	1678.75
556.584	1583.75
557.352	1497.75
558.121	1424.75
558.889	1324.75
559.657	1251.75
560.425	1187.75
561.193	1124.75
561.961	1058.75
562.729	1010.75
563.496	946.75
564.264	886.75
565.032	852.75
565.799	812.75
566.567	761.75
567.334	720.75
568.101	673.75
568.869	642.75
569.636	605.75
570.403	580.75
571.17	538.75
571.937	508.75
572.704	481.75
573.471	449.75
574.237	427.75
575.004	396.75
575.771	378.75
576.537	353.75
577.303	339.75
578.07	313.75
578.836	299.75
579.602	279.75
580.368	270.75
581.134	250.75
581.9	242.75
582.666	229.75
583.432	212.75
584.198	199.75
584.964	189.75
585.729	185.75
586.495	177.75
587.26	171.75
588.025	156.75
588.791	147.75
589.556	135.75
590.321	138.75
591.086	130.75
591.851	124.75
592.616	117.75
593.381	106.75
594.146	104.75
594.911	99.75
595.675	96.75
596.44	92.75
597.204	87.75
597.969	86.75
598.733	79.75
599.497	79.75
600.261	70.75
601.025	70.75
601.79	67.75
602.553	62.75
603.317	63.75
604.081	57.75
604.845	54.75
605.609	54.75
606.372	50.75
607.136	45.75
607.899	48.75
608.662	45.75
609.426	44.75
610.189	41.75
610.952	38.75
611.715	38.75
612.478	34.75
613.241	36.75
614.004	38.75
614.767	35.75
615.529	32.75
616.292	30.75
617.055	31.75
617.817	30.75
618.579	30.75
619.342	24.75
620.104	26.75
620.866	26.75
621.628	25.75
622.39	23.75
623.152	21.75
623.914	23.75
624.676	23.75
625.438	23.75
626.199	19.75
626.961	20.75
627.722	21.75
628.484	18.75
629.245	19.75
630.006	15.75
630.768	18.75
631.529	16.75
632.29	15.75
633.051	15.75
633.812	16.75
634.573	14.75
635.333	15.75
636.094	14.75
636.855	15.75
637.615	13.75
638.376	13.75
639.136	15.75
639.896	12.75
640.657	14.75
641.417	13.75
642.177	12.75
642.937	13.75
643.697	11.75
644.457	12.75
645.216	11.75
645.976	11.75
646.736	10.75
647.495	9.75
648.255	11.75
649.014	10.75
649.774	11.75
650.533	7.75
651.292	10.75
652.051	8.75
652.81	8.75
653.569	10.75
654.328	8.75
655.087	7.75
655.846	9.75
656.604	8.75
657.363	8.75
658.121	6.75
658.88	8.75
659.638	7.75
660.397	7.75
661.155	7.75
661.913	6.75
662.671	10.75
663.429	6.75
664.187	7.75
664.945	6.75
665.703	7.75
666.46	7.75
667.218	5.75
667.976	7.75
668.733	6.75
669.49	5.75
670.248	6.75
671.005	8.75
671.762	8.75
672.519	5.75
673.276	5.75
674.033	5.75
674.79	6.75
675.547	5.75
676.304	4.75
677.06	5.75
677.817	4.75
678.574	8.75
679.33	4.75
680.086	4.75
680.843	6.75
681.599	2.75
682.355	6.75
683.111	4.75
683.867	6.75
684.623	3.75
685.379	5.75
686.135	6.75
686.89	4.75
687.646	3.75
688.402	4.75
689.157	5.75
689.912	1.75
690.668	3.75
691.423	7.75
692.178	5.75
692.933	6.75
693.688	6.75
694.443	3.75
695.198	4.75
695.953	4.75
696.708	4.75
697.462	4.75
698.217	4.75
698.972	5.75
699.726	4.75
700.48	8.75
701.235	4.75
701.989	4.75
702.743	3.75
703.497	5.75
704.251	6.75
705.005	5.75
705.759	6.75
706.513	5.75
707.266	3.75
708.02	3.75
708.774	3.75
709.527	5.75
710.28	6.75
711.034	6.75
711.787	3.75
712.54	3.75
713.293	5.75
714.046	5.75
714.799	3.75
715.552	4.75
716.305	4.75
717.058	4.75
717.81	4.75
718.563	5.75
719.315	3.75
720.068	3.75
720.82	5.75
721.573	4.75
722.325	6.75
723.077	6.75
723.829	4.75
724.581	5.75
725.333	5.75
726.085	4.75
726.836	5.75
727.588	6.75
728.34	2.75
729.091	8.75
729.843	6.75
730.594	6.75
731.346	6.75
732.097	2.75
732.848	6.75
733.599	6.75
734.35	4.75
735.101	3.75
735.852	6.75
736.603	5.75
737.354	4.75
738.104	5.75
738.855	5.75
739.605	4.75
740.356	9.75
741.106	5.75
741.856	7.75
742.607	8.75
743.357	3.75
744.107	6.75
744.857	5.75
745.607	6.75
746.357	9.75
747.106	4.75
747.856	7.75
748.606	7.75
749.355	7.75
750.105	7.75
750.854	8.75
751.603	6.75
752.353	7.75
753.102	7.75
753.851	6.75
754.6	10.75
755.349	5.75
756.098	8.75
756.847	7.75
757.595	6.75
758.344	8.75
759.093	8.75
759.841	6.75
760.589	9.75
761.338	9.75
762.086	8.75
762.834	9.75
763.582	8.75
764.331	5.75
765.079	11.75
765.826	8.75
766.574	9.75
767.322	8.75
768.07	8.75
768.817	7.75
769.565	10.75
770.312	10.75
771.06	8.75
771.807	10.75
772.554	10.75
773.302	10.75
774.049	9.75
774.796	9.75
775.543	12.75
776.29	11.75
777.036	10.75
777.783	10.75
778.53	11.75
779.276	9.75
780.023	9.75
780.769	12.75
781.516	9.75
782.262	11.75
783.008	12.75
783.754	9.75
784.5	10.75
785.246	12.75
785.992	10.75
786.738	10.75
787.484	10.75
788.23	11.75
788.975	9.75
789.721	9.75
790.466	14.75
791.212	8.75
791.957	11.75
792.702	9.75
793.447	7.75
794.193	11.75
794.938	11.75
795.683	10.75
796.427	8.75
797.172	10.75
797.917	10.75
798.662	8.75
799.406	8.75
800.151	10.75
800.895	8.75
801.64	5.75
802.384	12.75
803.128	7.75
803.872	8.75
804.616	8.75
805.36	8.75
806.104	8.75
806.848	8.75
807.592	7.75
808.336	8.75
809.079	5.75
809.823	10.75
810.566	5.75
811.31	7.75
812.053	6.75
812.796	3.75
813.539	6.75
814.283	5.75
815.026	7.75
815.769	5.75
816.511	7.75
817.254	7.75
817.997	4.75
818.74	5.75
819.482	6.75
820.225	4.75
820.967	6.75
821.71	6.75
822.452	6.75
823.194	7.75
823.936	6.75
824.678	1.75
825.42	5.75
826.162	2.75
826.904	4.75
827.646	6.75
828.388	3.75
829.129	2.75
829.871	7.75
830.612	4.75
831.354	4.75
832.095	4.75
832.836	7.75
833.577	3.75
834.319	5.75
835.06	4.75
835.801	0.75
836.542	4.75
837.282	4.75
838.023	5.75
838.764	4.75
839.504	3.75
840.245	2.75
840.985	4.75
841.726	5.75
842.466	2.75
843.206	3.75
843.946	1.75
844.687	3.75
845.427	4.75
846.166	5.75
846.906	6.75
847.646	3.75
848.386	3.75
849.125	2.75
849.865	2.75
850.605	4.75
851.344	3.75
852.083	4.75
852.823	5.75
853.562	2.75
854.301	3.75
855.04	3.75
855.779	3.75
856.518	2.75
857.257	2.75
857.995	3.75
858.734	-0.25
859.473	4.75
860.211	0.75
860.95	4.75
861.688	0.75
862.426	-0.25
863.165	2.75
863.903	1.75
864.641	2.75
865.379	2.75
866.117	2.75
866.855	1.75
867.593	0.75
868.33	1.75
869.068	1.75
869.806	2.75
870.543	0.75
871.28	1.75
872.018	3.75
872.755	1.75
873.492	2.75
874.229	3.75
874.967	2.75
875.703	0.75
876.44	0.75
877.177	3.75
877.914	2.75
878.651	3.75
879.387	2.75
880.124	2.75
880.86	2.75
881.597	-0.25
882.333	0.75
883.069	2.75
883.806	1.75
884.542	0.75
885.278	1.75
886.014	3.75
886.749	0.75
887.485	0.75
888.221	1.75
888.957	2.75
889.692	-0.25
890.428	1.75
891.163	2.75
891.899	2.75
892.634	0.75
893.369	1.75
894.104	-1.25
894.839	0.75
895.574	0.75
896.309	0.75
897.044	1.75
897.779	0.75
898.514	2.75
899.248	0.75
899.983	0.75
900.717	0.75
901.452	1.75
902.186	-0.25
902.92	-1.25
903.654	0.75
904.389	3.75
905.123	1.75
905.857	0.75
906.59	-1.25
907.324	0.75
908.058	-0.25
908.792	2.75
909.525	0.75
910.259	2.75
910.992	0.75
911.726	0.75
912.459	0.75
913.192	-1.25
913.925	1.75
914.658	-0.25
915.391	-0.25
916.124	2.75
916.857	-1.25
917.59	1.75
918.323	2.75
919.055	1.75
919.788	2.75
920.521	-1.25
921.253	0.75
921.985	-1.25
922.718	1.75
923.45	-1.25
924.182	-2.25
924.914	-0.25
925.646	0.75
926.378	0.75
927.11	2.75
927.841	1.75
928.573	1.75
929.305	-0.25
930.036	-0.25
930.768	2.75
931.499	1.75
932.23	1.75
932.962	2.75
933.693	2.75
934.424	1.75
935.155	0.75
935.886	1.75
936.617	1.75
937.348	-0.25
938.078	-0.25
938.809	1.75
939.54	-0.25
940.27	2.75
941.001	2.75
941.731	1.75
942.461	-0.25
943.191	-1.25
943.922	1.75
944.652	1.75
945.382	1.75
946.112	0.75
946.841	-1.25
947.571	-0.25
948.301	0.75
949.031	1.75
949.76	0.75
950.49	-0.25
951.219	1.75
951.948	1.75
952.678	0.75
953.407	1.75
954.136	1.75
954.865	-0.25
955.594	0.75
956.323	2.75
957.052	0.75
957.78	1.75
958.509	1.75
959.238	0.75
959.966	0.75
960.695	0.75
961.423	1.75
962.151	3.75
962.88	1.75
963.608	2.75
964.336	-0.25
965.064	1.75
965.792	-1.25
966.52	1.75
967.247	1.75
967.975	1.75
968.703	2.75
969.43	1.75
970.158	0.75
970.885	2.75
971.613	1.75
972.34	0.75
973.067	-0.25
973.794	1.75
974.521	2.75
975.248	0.75
975.975	-0.25
976.702	0.75
977.429	0.75
978.156	0.75
978.882	1.75
979.609	0.75
980.335	1.75
981.062	0.75
981.788	1.75
982.514	2.75
983.24	0.75
983.967	0.75
984.693	0.75
985.419	-1.25
986.144	-0.25
986.87	0.75
987.596	-0.25
988.322	2.75
989.047	-1.25
989.773	1.75
990.498	2.75
991.224	-0.25
991.949	-1.25
992.674	1.75
993.399	0.75
994.124	-1.25
994.849	1.75
995.574	2.75
996.299	-0.25
997.024	2.75
997.749	0.75
998.473	1.75
999.198	-2.25
999.922	1.75
1000.647	-0.25
1001.371	1.75
1002.095	-1.25
1002.82	-1.25
1003.544	-1.25
1004.268	3.75
1004.992	2.75
1005.716	4.75
1006.439	2.75
1007.163	2.75
1007.887	3.75
1008.611	1.75
1009.334	1.75
1010.058	0.75
1010.781	0.75
1011.504	3.75
1012.228	0.75
1012.951	1.75
1013.674	-1.25
1014.397	-0.25
1015.12	1.75
