节点500_425_QEPB04081__211__15-51-49-102.txt的数据

Date: Wed Nov 12 15:51:49 CST 2025
User: PC
Spectrometer: QEPB0408
触发模式: 0
积分时间 (秒): 1.000000E-2
Scans to average: 1
启用暗噪声校正: true
启用非线性校正: false
滑动平均宽度: 0
X轴模式: Wavelengths
Number of Pixels in Spectrum: 1044
>>>>>Begin Spectral Data<<<<<
220.843	0.62
221.644	1.62
222.444	4.62
223.244	1.62
224.045	3.62
224.845	4.62
225.645	1.62
226.445	1.62
227.245	3.62
228.045	3.62
228.845	1.62
229.645	5.62
230.444	1.62
231.244	4.62
232.043	4.62
232.843	5.62
233.642	5.62
234.442	7.62
235.241	3.62
236.04	4.62
236.839	7.62
237.638	5.62
238.437	4.62
239.236	4.62
240.035	4.62
240.833	7.62
241.632	7.62
242.43	4.62
243.229	7.62
244.027	9.62
244.826	8.62
245.624	4.62
246.422	10.62
247.22	5.62
248.018	8.62
248.816	10.62
249.614	9.62
250.412	8.62
251.21	6.62
252.007	9.62
252.805	9.62
253.602	11.62
254.4	9.62
255.197	10.62
255.994	12.62
256.791	13.62
257.589	11.62
258.386	12.62
259.183	10.62
259.979	13.62
260.776	13.62
261.573	15.62
262.37	16.62
263.166	13.62
263.963	15.62
264.759	16.62
265.556	19.62
266.352	15.62
267.148	17.62
267.944	20.62
268.74	19.62
269.536	17.62
270.332	19.62
271.128	21.62
271.924	21.62
272.719	19.62
273.515	23.62
274.311	22.62
275.106	22.62
275.901	26.62
276.697	23.62
277.492	24.62
278.287	25.62
279.082	22.62
279.877	23.62
280.672	25.62
281.467	23.62
282.262	24.62
283.056	23.62
283.851	23.62
284.646	23.62
285.44	22.62
286.234	23.62
287.029	23.62
287.823	22.62
288.617	24.62
289.411	22.62
290.205	21.62
290.999	23.62
291.793	22.62
292.587	22.62
293.381	23.62
294.174	24.62
294.968	19.62
295.761	18.62
296.555	20.62
297.348	15.62
298.141	19.62
298.935	21.62
299.728	19.62
300.521	20.62
301.314	20.62
302.107	17.62
302.899	16.62
303.692	17.62
304.485	16.62
305.277	16.62
306.07	15.62
306.862	14.62
307.655	17.62
308.447	12.62
309.239	14.62
310.031	14.62
310.823	13.62
311.615	11.62
312.407	12.62
313.199	11.62
313.991	10.62
314.783	8.62
315.574	12.62
316.366	9.62
317.157	8.62
317.949	11.62
318.74	12.62
319.531	9.62
320.322	6.62
321.113	10.62
321.904	10.62
322.695	10.62
323.486	6.62
324.277	11.62
325.068	8.62
325.858	7.62
326.649	7.62
327.439	7.62
328.23	8.62
329.02	6.62
329.81	6.62
330.6	7.62
331.391	6.62
332.181	10.62
332.971	7.62
333.76	7.62
334.55	7.62
335.34	7.62
336.13	9.62
336.919	8.62
337.709	9.62
338.498	7.62
339.287	5.62
340.077	7.62
340.866	6.62
341.655	5.62
342.444	6.62
343.233	8.62
344.022	9.62
344.811	9.62
345.6	6.62
346.388	8.62
347.177	7.62
347.965	8.62
348.754	6.62
349.542	11.62
350.33	5.62
351.119	8.62
351.907	4.62
352.695	7.62
353.483	8.62
354.271	6.62
355.059	7.62
355.846	5.62
356.634	7.62
357.422	6.62
358.209	5.62
358.997	6.62
359.784	7.62
360.571	8.62
361.359	4.62
362.146	7.62
362.933	7.62
363.72	7.62
364.507	8.62
365.294	4.62
366.081	7.62
366.867	5.62
367.654	5.62
368.44	6.62
369.227	6.62
370.013	6.62
370.8	5.62
371.586	3.62
372.372	7.62
373.158	6.62
373.944	6.62
374.73	4.62
375.516	3.62
376.302	6.62
377.088	6.62
377.873	7.62
378.659	5.62
379.445	6.62
380.23	6.62
381.015	0.62
381.801	6.62
382.586	3.62
383.371	8.62
384.156	6.62
384.941	6.62
385.726	6.62
386.511	5.62
387.296	7.62
388.08	7.62
388.865	7.62
389.649	6.62
390.434	5.62
391.218	8.62
392.003	5.62
392.787	6.62
393.571	6.62
394.355	7.62
395.139	5.62
395.923	5.62
396.707	10.62
397.491	8.62
398.274	11.62
399.058	5.62
399.842	7.62
400.625	10.62
401.408	10.62
402.192	10.62
402.975	7.62
403.758	9.62
404.541	9.62
405.324	11.62
406.107	9.62
406.89	9.62
407.673	11.62
408.456	8.62
409.238	9.62
410.021	11.62
410.803	9.62
411.586	9.62
412.368	7.62
413.151	11.62
413.933	12.62
414.715	12.62
415.497	11.62
416.279	9.62
417.061	13.62
417.843	13.62
418.624	14.62
419.406	12.62
420.188	10.62
420.969	13.62
421.751	12.62
422.532	11.62
423.313	11.62
424.095	13.62
424.876	14.62
425.657	15.62
426.438	14.62
427.219	16.62
428	15.62
428.78	21.62
429.561	19.62
430.342	17.62
431.122	18.62
431.903	21.62
432.683	18.62
433.464	21.62
434.244	21.62
435.024	20.62
435.804	25.62
436.584	24.62
437.364	28.62
438.144	27.62
438.924	32.62
439.704	33.62
440.483	33.62
441.263	35.62
442.042	35.62
442.822	40.62
443.601	40.62
444.38	44.62
445.16	49.62
445.939	51.62
446.718	55.62
447.497	55.62
448.276	64.62
449.054	70.62
449.833	72.62
450.612	77.62
451.391	89.62
452.169	97.62
452.948	110.62
453.726	121.62
454.504	134.62
455.282	147.62
456.061	164.62
456.839	180.62
457.617	199.62
458.395	232.62
459.172	251.62
459.95	282.62
460.728	314.62
461.506	348.62
462.283	387.62
463.061	435.62
463.838	489.62
464.615	559.62
465.393	596.62
466.17	673.62
466.947	763.62
467.724	836.62
468.501	944.62
469.278	1034.62
470.055	1149.62
470.831	1287.62
471.608	1425.62
472.385	1578.62
473.161	1753.62
473.938	1942.62
474.714	2146.62
475.49	2380.62
476.266	2600.62
477.043	2909.62
477.819	3200.62
478.595	3515.62
479.371	3892.62
480.146	4272.62
480.922	4695.62
481.698	5168.62
482.473	5652.62
483.249	6205.62
484.024	6804.62
484.8	7473.62
485.575	8177.62
486.35	8922.62
487.126	9749.62
487.901	10645.62
488.676	11615.62
489.451	12601.62
490.225	13707.62
491	14943.62
491.775	16187.62
492.55	17447.62
493.324	18856.62
494.099	20226.62
494.873	21559.62
495.647	23004.62
496.422	24498.62
497.196	26002.62
497.97	27585.62
498.744	28961.62
499.518	30304.62
500.292	31532.62
501.066	32687.62
501.839	33824.62
502.613	34741.62
503.387	35320.62
504.16	35853.62
504.934	36035.62
505.707	36019.62
506.48	35850.62
507.253	35509.62
508.027	35060.62
508.8	34437.62
509.573	33599.62
510.346	32701.62
511.118	31745.62
511.891	30731.62
512.664	29548.62
513.437	28321.62
514.209	27138.62
514.982	26112.62
515.754	25032.62
516.526	24001.62
517.298	23019.62
518.071	21971.62
518.843	21113.62
519.615	20266.62
520.387	19418.62
521.159	18638.62
521.93	17957.62
522.702	17224.62
523.474	16585.62
524.245	15881.62
525.017	15170.62
525.788	14469.62
526.56	13766.62
527.331	13148.62
528.102	12577.62
528.873	11930.62
529.644	11338.62
530.415	10822.62
531.186	10314.62
531.957	9724.62
532.728	9215.62
533.498	8730.62
534.269	8242.62
535.039	7797.62
535.81	7363.62
536.58	6931.62
537.351	6542.62
538.121	6191.62
538.891	5896.62
539.661	5585.62
540.431	5245.62
541.201	4983.62
541.971	4713.62
542.741	4477.62
543.51	4250.62
544.28	4014.62
545.05	3836.62
545.819	3662.62
546.588	3478.62
547.358	3280.62
548.127	3135.62
548.896	2961.62
549.665	2809.62
550.434	2676.62
551.203	2540.62
551.972	2384.62
552.741	2267.62
553.51	2141.62
554.278	2012.62
555.047	1914.62
555.815	1795.62
556.584	1713.62
557.352	1599.62
558.121	1527.62
558.889	1437.62
559.657	1357.62
560.425	1270.62
561.193	1202.62
561.961	1141.62
562.729	1075.62
563.496	1006.62
564.264	955.62
565.032	908.62
565.799	861.62
566.567	817.62
567.334	765.62
568.101	722.62
568.869	688.62
569.636	644.62
570.403	599.62
571.17	582.62
571.937	552.62
572.704	513.62
573.471	490.62
574.237	449.62
575.004	435.62
575.771	408.62
576.537	385.62
577.303	349.62
578.07	340.62
578.836	325.62
579.602	301.62
580.368	286.62
581.134	271.62
581.9	255.62
582.666	247.62
583.432	233.62
584.198	219.62
584.964	210.62
585.729	195.62
586.495	189.62
587.26	176.62
588.025	169.62
588.791	169.62
589.556	148.62
590.321	143.62
591.086	138.62
591.851	125.62
592.616	125.62
593.381	115.62
594.146	115.62
594.911	107.62
595.675	96.62
596.44	94.62
597.204	91.62
597.969	84.62
598.733	80.62
599.497	82.62
600.261	73.62
601.025	74.62
601.79	70.62
602.553	64.62
603.317	64.62
604.081	63.62
604.845	59.62
605.609	55.62
606.372	55.62
607.136	49.62
607.899	48.62
608.662	47.62
609.426	48.62
610.189	44.62
610.952	44.62
611.715	43.62
612.478	40.62
613.241	40.62
614.004	38.62
614.767	35.62
615.529	35.62
616.292	34.62
617.055	30.62
617.817	32.62
618.579	26.62
619.342	29.62
620.104	27.62
620.866	25.62
621.628	24.62
622.39	24.62
623.152	24.62
623.914	23.62
624.676	21.62
625.438	21.62
626.199	21.62
626.961	20.62
627.722	18.62
628.484	21.62
629.245	17.62
630.006	19.62
630.768	18.62
631.529	16.62
632.29	16.62
633.051	16.62
633.812	16.62
634.573	17.62
635.333	13.62
636.094	14.62
636.855	12.62
637.615	17.62
638.376	17.62
639.136	11.62
639.896	11.62
640.657	12.62
641.417	10.62
642.177	11.62
642.937	9.62
643.697	9.62
644.457	10.62
645.216	13.62
645.976	10.62
646.736	11.62
647.495	9.62
648.255	8.62
649.014	7.62
649.774	8.62
650.533	8.62
651.292	8.62
652.051	8.62
652.81	7.62
653.569	8.62
654.328	5.62
655.087	5.62
655.846	9.62
656.604	7.62
657.363	8.62
658.121	8.62
658.88	6.62
659.638	6.62
660.397	6.62
661.155	6.62
661.913	6.62
662.671	7.62
663.429	6.62
664.187	5.62
664.945	3.62
665.703	5.62
666.46	4.62
667.218	5.62
667.976	4.62
668.733	5.62
669.49	3.62
670.248	5.62
671.005	4.62
671.762	4.62
672.519	6.62
673.276	6.62
674.033	4.62
674.79	5.62
675.547	4.62
676.304	5.62
677.06	5.62
677.817	4.62
678.574	4.62
679.33	4.62
680.086	4.62
680.843	6.62
681.599	4.62
682.355	1.62
683.111	4.62
683.867	3.62
684.623	5.62
685.379	6.62
686.135	4.62
686.89	3.62
687.646	6.62
688.402	4.62
689.157	5.62
689.912	3.62
690.668	4.62
691.423	2.62
692.178	3.62
692.933	3.62
693.688	4.62
694.443	5.62
695.198	2.62
695.953	4.62
696.708	4.62
697.462	3.62
698.217	4.62
698.972	4.62
699.726	4.62
700.48	4.62
701.235	4.62
701.989	5.62
702.743	3.62
703.497	6.62
704.251	3.62
705.005	2.62
705.759	4.62
706.513	6.62
707.266	4.62
708.02	3.62
708.774	3.62
709.527	2.62
710.28	2.62
711.034	5.62
711.787	3.62
712.54	3.62
713.293	3.62
714.046	3.62
714.799	3.62
715.552	3.62
716.305	4.62
717.058	5.62
717.81	3.62
718.563	2.62
719.315	2.62
720.068	4.62
720.82	5.62
721.573	4.62
722.325	3.62
723.077	4.62
723.829	4.62
724.581	5.62
725.333	4.62
726.085	3.62
726.836	2.62
727.588	3.62
728.34	4.62
729.091	4.62
729.843	5.62
730.594	4.62
731.346	3.62
732.097	3.62
732.848	3.62
733.599	5.62
734.35	2.62
735.101	4.62
735.852	5.62
736.603	3.62
737.354	5.62
738.104	5.62
738.855	4.62
739.605	5.62
740.356	6.62
741.106	3.62
741.856	6.62
742.607	5.62
743.357	6.62
744.107	4.62
744.857	5.62
745.607	2.62
746.357	6.62
747.106	5.62
747.856	5.62
748.606	6.62
749.355	5.62
750.105	6.62
750.854	6.62
751.603	9.62
752.353	6.62
753.102	6.62
753.851	7.62
754.6	6.62
755.349	9.62
756.098	6.62
756.847	10.62
757.595	7.62
758.344	6.62
759.093	8.62
759.841	7.62
760.589	5.62
761.338	9.62
762.086	8.62
762.834	7.62
763.582	6.62
764.331	7.62
765.079	6.62
765.826	11.62
766.574	7.62
767.322	8.62
768.07	9.62
768.817	7.62
769.565	10.62
770.312	8.62
771.06	11.62
771.807	9.62
772.554	10.62
773.302	9.62
774.049	8.62
774.796	11.62
775.543	8.62
776.29	11.62
777.036	9.62
777.783	10.62
778.53	10.62
779.276	10.62
780.023	10.62
780.769	11.62
781.516	8.62
782.262	10.62
783.008	11.62
783.754	13.62
784.5	8.62
785.246	10.62
785.992	11.62
786.738	10.62
787.484	10.62
788.23	12.62
788.975	11.62
789.721	8.62
790.466	9.62
791.212	11.62
791.957	8.62
792.702	11.62
793.447	9.62
794.193	10.62
794.938	7.62
795.683	9.62
796.427	11.62
797.172	10.62
797.917	13.62
798.662	8.62
799.406	9.62
800.151	9.62
800.895	6.62
801.64	9.62
802.384	6.62
803.128	6.62
803.872	7.62
804.616	7.62
805.36	6.62
806.104	5.62
806.848	9.62
807.592	6.62
808.336	6.62
809.079	7.62
809.823	3.62
810.566	6.62
811.31	4.62
812.053	8.62
812.796	7.62
813.539	3.62
814.283	8.62
815.026	6.62
815.769	4.62
816.511	5.62
817.254	5.62
817.997	5.62
818.74	5.62
819.482	6.62
820.225	7.62
820.967	3.62
821.71	5.62
822.452	4.62
823.194	2.62
823.936	4.62
824.678	6.62
825.42	7.62
826.162	5.62
826.904	3.62
827.646	2.62
828.388	4.62
829.129	4.62
829.871	3.62
830.612	6.62
831.354	4.62
832.095	3.62
832.836	2.62
833.577	2.62
834.319	1.62
835.06	4.62
835.801	3.62
836.542	4.62
837.282	1.62
838.023	1.62
838.764	2.62
839.504	4.62
840.245	2.62
840.985	3.62
841.726	2.62
842.466	1.62
843.206	3.62
843.946	3.62
844.687	1.62
845.427	2.62
846.166	1.62
846.906	1.62
847.646	4.62
848.386	3.62
849.125	2.62
849.865	3.62
850.605	3.62
851.344	2.62
852.083	3.62
852.823	4.62
853.562	1.62
854.301	3.62
855.04	2.62
855.779	2.62
856.518	1.62
857.257	5.62
857.995	2.62
858.734	0.62
859.473	0.62
860.211	1.62
860.95	1.62
861.688	2.62
862.426	3.62
863.165	3.62
863.903	1.62
864.641	-0.38
865.379	2.62
866.117	0.62
866.855	3.62
867.593	0.62
868.33	1.62
869.068	0.62
869.806	-0.38
870.543	-0.38
871.28	-0.38
872.018	1.62
872.755	3.62
873.492	-0.38
874.229	1.62
874.967	0.62
875.703	0.62
876.44	2.62
877.177	0.62
877.914	1.62
878.651	-1.38
879.387	-0.38
880.124	-0.38
880.86	-1.38
881.597	0.62
882.333	-0.38
883.069	1.62
883.806	1.62
884.542	-0.38
885.278	-0.38
886.014	-1.38
886.749	-0.38
887.485	1.62
888.221	0.62
888.957	-0.38
889.692	0.62
890.428	3.62
891.163	0.62
891.899	0.62
892.634	-0.38
893.369	-0.38
894.104	0.62
894.839	-1.38
895.574	-0.38
896.309	-1.38
897.044	0.62
897.779	1.62
898.514	-0.38
899.248	2.62
899.983	-0.38
900.717	1.62
901.452	-0.38
902.186	-1.38
902.92	-0.38
903.654	1.62
904.389	-1.38
905.123	0.62
905.857	-0.38
906.59	-1.38
907.324	-0.38
908.058	-1.38
908.792	0.62
909.525	-1.38
910.259	-0.38
910.992	-0.38
911.726	-1.38
912.459	0.62
913.192	-0.38
913.925	0.62
914.658	0.62
915.391	-1.38
916.124	-0.38
916.857	-1.38
917.59	0.62
918.323	1.62
919.055	-0.38
919.788	-0.38
920.521	0.62
921.253	-0.38
921.985	0.62
922.718	-0.38
923.45	0.62
924.182	-1.38
924.914	-0.38
925.646	-1.38
926.378	-0.38
927.11	-1.38
927.841	-0.38
928.573	-1.38
929.305	-1.38
930.036	-0.38
930.768	0.62
931.499	-3.38
932.23	-2.38
932.962	-0.38
933.693	0.62
934.424	-0.38
935.155	-3.38
935.886	-1.38
936.617	-1.38
937.348	-0.38
938.078	-0.38
938.809	-3.38
939.54	-1.38
940.27	-0.38
941.001	-0.38
941.731	-1.38
942.461	0.62
943.191	-0.38
943.922	-1.38
944.652	1.62
945.382	-1.38
946.112	-0.38
946.841	1.62
947.571	0.62
948.301	2.62
949.031	-1.38
949.76	-1.38
950.49	0.62
951.219	-1.38
951.948	-1.38
952.678	-2.38
953.407	-0.38
954.136	-2.38
954.865	-0.38
955.594	-1.38
956.323	0.62
957.052	1.62
957.78	-0.38
958.509	0.62
959.238	-2.38
959.966	-0.38
960.695	-1.38
961.423	-1.38
962.151	-1.38
962.88	-0.38
963.608	0.62
964.336	-0.38
965.064	-2.38
965.792	0.62
966.52	-3.38
967.247	-0.38
967.975	0.62
968.703	-2.38
969.43	-2.38
970.158	-2.38
970.885	-0.38
971.613	0.62
972.34	0.62
973.067	-1.38
973.794	-0.38
974.521	-0.38
975.248	-1.38
975.975	0.62
976.702	0.62
977.429	0.62
978.156	-1.38
978.882	-1.38
979.609	-1.38
980.335	-0.38
981.062	-1.38
981.788	-0.38
982.514	0.62
983.24	0.62
983.967	-3.38
984.693	-1.38
985.419	2.62
986.144	-0.38
986.87	-1.38
987.596	0.62
988.322	0.62
989.047	-2.38
989.773	-1.38
990.498	-2.38
991.224	-0.38
991.949	0.62
992.674	-2.38
993.399	1.62
994.124	-2.38
994.849	-2.38
995.574	-0.38
996.299	0.62
997.024	-1.38
997.749	-0.38
998.473	-0.38
999.198	0.62
999.922	-2.38
1000.647	0.62
1001.371	3.62
1002.095	-0.38
1002.82	-2.38
1003.544	-0.38
1004.268	2.62
1004.992	0.62
1005.716	1.62
1006.439	1.62
1007.163	-0.38
1007.887	0.62
1008.611	-0.38
1009.334	-2.38
1010.058	-2.38
1010.781	-2.38
1011.504	-0.38
1012.228	-1.38
1012.951	-1.38
1013.674	-1.38
1014.397	2.62
1015.12	-0.38
