节点500_425_QEPB04081__76__15-49-34-363.txt的数据

Date: Wed Nov 12 15:49:34 CST 2025
User: PC
Spectrometer: QEPB0408
触发模式: 0
积分时间 (秒): 1.000000E-2
Scans to average: 1
启用暗噪声校正: true
启用非线性校正: false
滑动平均宽度: 0
X轴模式: Wavelengths
Number of Pixels in Spectrum: 1044
>>>>>Begin Spectral Data<<<<<
220.843	2.38
221.644	2.38
222.444	3.38
223.244	5.38
224.045	3.38
224.845	4.38
225.645	2.38
226.445	4.38
227.245	6.38
228.045	3.38
228.845	6.38
229.645	5.38
230.444	4.38
231.244	6.38
232.043	5.38
232.843	7.38
233.642	5.38
234.442	3.38
235.241	4.38
236.04	5.38
236.839	7.38
237.638	6.38
238.437	8.38
239.236	5.38
240.035	6.38
240.833	7.38
241.632	6.38
242.43	8.38
243.229	7.38
244.027	10.38
244.826	8.38
245.624	8.38
246.422	10.38
247.22	9.38
248.018	8.38
248.816	10.38
249.614	9.38
250.412	8.38
251.21	9.38
252.007	13.38
252.805	11.38
253.602	13.38
254.4	10.38
255.197	12.38
255.994	14.38
256.791	12.38
257.589	15.38
258.386	13.38
259.183	13.38
259.979	15.38
260.776	16.38
261.573	17.38
262.37	16.38
263.166	16.38
263.963	18.38
264.759	21.38
265.556	19.38
266.352	19.38
267.148	20.38
267.944	20.38
268.74	22.38
269.536	19.38
270.332	21.38
271.128	22.38
271.924	20.38
272.719	23.38
273.515	22.38
274.311	22.38
275.106	27.38
275.901	24.38
276.697	25.38
277.492	25.38
278.287	26.38
279.082	23.38
279.877	26.38
280.672	24.38
281.467	26.38
282.262	28.38
283.056	27.38
283.851	28.38
284.646	28.38
285.44	26.38
286.234	25.38
287.029	23.38
287.823	27.38
288.617	24.38
289.411	25.38
290.205	26.38
290.999	24.38
291.793	27.38
292.587	25.38
293.381	23.38
294.174	27.38
294.968	20.38
295.761	19.38
296.555	22.38
297.348	24.38
298.141	18.38
298.935	21.38
299.728	17.38
300.521	18.38
301.314	16.38
302.107	15.38
302.899	16.38
303.692	19.38
304.485	16.38
305.277	18.38
306.07	19.38
306.862	16.38
307.655	16.38
308.447	18.38
309.239	17.38
310.031	14.38
310.823	15.38
311.615	13.38
312.407	14.38
313.199	15.38
313.991	10.38
314.783	9.38
315.574	11.38
316.366	12.38
317.157	10.38
317.949	9.38
318.74	10.38
319.531	9.38
320.322	10.38
321.113	7.38
321.904	10.38
322.695	8.38
323.486	10.38
324.277	11.38
325.068	10.38
325.858	10.38
326.649	12.38
327.439	9.38
328.23	8.38
329.02	9.38
329.81	10.38
330.6	8.38
331.391	8.38
332.181	9.38
332.971	8.38
333.76	8.38
334.55	7.38
335.34	9.38
336.13	9.38
336.919	9.38
337.709	9.38
338.498	8.38
339.287	9.38
340.077	7.38
340.866	8.38
341.655	7.38
342.444	7.38
343.233	8.38
344.022	8.38
344.811	8.38
345.6	8.38
346.388	10.38
347.177	8.38
347.965	9.38
348.754	7.38
349.542	8.38
350.33	6.38
351.119	8.38
351.907	7.38
352.695	8.38
353.483	9.38
354.271	7.38
355.059	6.38
355.846	8.38
356.634	7.38
357.422	8.38
358.209	9.38
358.997	4.38
359.784	7.38
360.571	10.38
361.359	8.38
362.146	6.38
362.933	5.38
363.72	9.38
364.507	9.38
365.294	8.38
366.081	6.38
366.867	7.38
367.654	5.38
368.44	5.38
369.227	6.38
370.013	5.38
370.8	6.38
371.586	6.38
372.372	5.38
373.158	6.38
373.944	5.38
374.73	8.38
375.516	6.38
376.302	7.38
377.088	7.38
377.873	7.38
378.659	8.38
379.445	6.38
380.23	6.38
381.015	7.38
381.801	9.38
382.586	7.38
383.371	5.38
384.156	7.38
384.941	7.38
385.726	7.38
386.511	8.38
387.296	6.38
388.08	9.38
388.865	7.38
389.649	8.38
390.434	9.38
391.218	6.38
392.003	9.38
392.787	9.38
393.571	8.38
394.355	7.38
395.139	10.38
395.923	9.38
396.707	9.38
397.491	9.38
398.274	10.38
399.058	11.38
399.842	8.38
400.625	10.38
401.408	8.38
402.192	10.38
402.975	11.38
403.758	7.38
404.541	12.38
405.324	11.38
406.107	11.38
406.89	10.38
407.673	10.38
408.456	11.38
409.238	13.38
410.021	10.38
410.803	12.38
411.586	10.38
412.368	11.38
413.151	11.38
413.933	13.38
414.715	14.38
415.497	13.38
416.279	14.38
417.061	14.38
417.843	11.38
418.624	13.38
419.406	14.38
420.188	14.38
420.969	12.38
421.751	17.38
422.532	16.38
423.313	14.38
424.095	16.38
424.876	16.38
425.657	16.38
426.438	16.38
427.219	16.38
428	19.38
428.78	20.38
429.561	18.38
430.342	21.38
431.122	18.38
431.903	21.38
432.683	20.38
433.464	22.38
434.244	24.38
435.024	25.38
435.804	25.38
436.584	27.38
437.364	26.38
438.144	27.38
438.924	30.38
439.704	32.38
440.483	36.38
441.263	35.38
442.042	37.38
442.822	39.38
443.601	41.38
444.38	45.38
445.16	48.38
445.939	49.38
446.718	55.38
447.497	57.38
448.276	63.38
449.054	72.38
449.833	72.38
450.612	83.38
451.391	88.38
452.169	99.38
452.948	108.38
453.726	120.38
454.504	127.38
455.282	142.38
456.061	151.38
456.839	172.38
457.617	193.38
458.395	221.38
459.172	235.38
459.95	265.38
460.728	298.38
461.506	335.38
462.283	378.38
463.061	421.38
463.838	473.38
464.615	526.38
465.393	588.38
466.17	646.38
466.947	738.38
467.724	811.38
468.501	907.38
469.278	1021.38
470.055	1131.38
470.831	1250.38
471.608	1393.38
472.385	1566.38
473.161	1742.38
473.938	1928.38
474.714	2138.38
475.49	2362.38
476.266	2618.38
477.043	2878.38
477.819	3203.38
478.595	3549.38
479.371	3936.38
480.146	4333.38
480.922	4767.38
481.698	5258.38
482.473	5778.38
483.249	6358.38
484.024	7013.38
484.8	7691.38
485.575	8448.38
486.35	9278.38
487.126	10150.38
487.901	11131.38
488.676	12190.38
489.451	13271.38
490.225	14488.38
491	15712.38
491.775	17122.38
492.55	18522.38
493.324	19956.38
494.099	21363.38
494.873	22905.38
495.647	24479.38
496.422	26002.38
497.196	27511.38
497.97	29174.38
498.744	30606.38
499.518	32180.38
500.292	33397.38
501.066	34350.38
501.839	35414.38
502.613	36360.38
503.387	36782.38
504.16	37258.38
504.934	37252.38
505.707	37166.38
506.48	36846.38
507.253	36235.38
508.027	35722.38
508.8	34990.38
509.573	34051.38
510.346	32999.38
511.118	31869.38
511.891	30647.38
512.664	29399.38
513.437	28197.38
514.209	26981.38
514.982	25962.38
515.754	24768.38
516.526	23668.38
517.298	22630.38
518.071	21684.38
518.843	20826.38
519.615	19982.38
520.387	19122.38
521.159	18418.38
521.93	17710.38
522.702	17003.38
523.474	16351.38
524.245	15667.38
525.017	14973.38
525.788	14196.38
526.56	13593.38
527.331	12919.38
528.102	12317.38
528.873	11681.38
529.644	11126.38
530.415	10563.38
531.186	10044.38
531.957	9476.38
532.728	8951.38
533.498	8450.38
534.269	8008.38
535.039	7544.38
535.81	7088.38
536.58	6690.38
537.351	6330.38
538.121	5977.38
538.891	5677.38
539.661	5365.38
540.431	5090.38
541.201	4834.38
541.971	4558.38
542.741	4352.38
543.51	4123.38
544.28	3930.38
545.05	3731.38
545.819	3553.38
546.588	3372.38
547.358	3190.38
548.127	3017.38
548.896	2891.38
549.665	2713.38
550.434	2581.38
551.203	2437.38
551.972	2317.38
552.741	2190.38
553.51	2055.38
554.278	1942.38
555.047	1827.38
555.815	1729.38
556.584	1632.38
557.352	1531.38
558.121	1458.38
558.889	1366.38
559.657	1294.38
560.425	1228.38
561.193	1151.38
561.961	1095.38
562.729	1026.38
563.496	972.38
564.264	918.38
565.032	878.38
565.799	831.38
566.567	785.38
567.334	743.38
568.101	699.38
568.869	656.38
569.636	623.38
570.403	594.38
571.17	546.38
571.937	530.38
572.704	497.38
573.471	468.38
574.237	444.38
575.004	407.38
575.771	395.38
576.537	363.38
577.303	340.38
578.07	323.38
578.836	299.38
579.602	293.38
580.368	269.38
581.134	262.38
581.9	250.38
582.666	239.38
583.432	219.38
584.198	214.38
584.964	198.38
585.729	189.38
586.495	182.38
587.26	170.38
588.025	166.38
588.791	153.38
589.556	146.38
590.321	137.38
591.086	131.38
591.851	126.38
592.616	122.38
593.381	116.38
594.146	110.38
594.911	103.38
595.675	96.38
596.44	92.38
597.204	84.38
597.969	86.38
598.733	82.38
599.497	82.38
600.261	73.38
601.025	71.38
601.79	68.38
602.553	65.38
603.317	61.38
604.081	60.38
604.845	59.38
605.609	54.38
606.372	54.38
607.136	49.38
607.899	47.38
608.662	48.38
609.426	47.38
610.189	45.38
610.952	44.38
611.715	40.38
612.478	39.38
613.241	35.38
614.004	35.38
614.767	34.38
615.529	32.38
616.292	34.38
617.055	33.38
617.817	30.38
618.579	29.38
619.342	27.38
620.104	28.38
620.866	27.38
621.628	26.38
622.39	26.38
623.152	26.38
623.914	23.38
624.676	19.38
625.438	22.38
626.199	21.38
626.961	19.38
627.722	21.38
628.484	24.38
629.245	21.38
630.006	20.38
630.768	18.38
631.529	17.38
632.29	18.38
633.051	17.38
633.812	17.38
634.573	14.38
635.333	13.38
636.094	18.38
636.855	14.38
637.615	13.38
638.376	15.38
639.136	10.38
639.896	14.38
640.657	12.38
641.417	14.38
642.177	12.38
642.937	13.38
643.697	10.38
644.457	11.38
645.216	10.38
645.976	12.38
646.736	10.38
647.495	9.38
648.255	10.38
649.014	11.38
649.774	8.38
650.533	11.38
651.292	10.38
652.051	10.38
652.81	9.38
653.569	9.38
654.328	9.38
655.087	7.38
655.846	9.38
656.604	8.38
657.363	8.38
658.121	8.38
658.88	6.38
659.638	7.38
660.397	6.38
661.155	7.38
661.913	10.38
662.671	7.38
663.429	5.38
664.187	6.38
664.945	7.38
665.703	7.38
666.46	9.38
667.218	8.38
667.976	5.38
668.733	7.38
669.49	6.38
670.248	7.38
671.005	7.38
671.762	8.38
672.519	7.38
673.276	8.38
674.033	6.38
674.79	4.38
675.547	5.38
676.304	5.38
677.06	5.38
677.817	7.38
678.574	4.38
679.33	6.38
680.086	5.38
680.843	6.38
681.599	6.38
682.355	5.38
683.111	6.38
683.867	4.38
684.623	5.38
685.379	7.38
686.135	4.38
686.89	5.38
687.646	6.38
688.402	4.38
689.157	6.38
689.912	4.38
690.668	6.38
691.423	4.38
692.178	5.38
692.933	3.38
693.688	5.38
694.443	3.38
695.198	4.38
695.953	6.38
696.708	4.38
697.462	8.38
698.217	4.38
698.972	3.38
699.726	5.38
700.48	7.38
701.235	7.38
701.989	4.38
702.743	5.38
703.497	5.38
704.251	3.38
705.005	5.38
705.759	7.38
706.513	4.38
707.266	7.38
708.02	4.38
708.774	7.38
709.527	3.38
710.28	6.38
711.034	5.38
711.787	5.38
712.54	5.38
713.293	5.38
714.046	5.38
714.799	3.38
715.552	5.38
716.305	5.38
717.058	4.38
717.81	5.38
718.563	5.38
719.315	5.38
720.068	4.38
720.82	6.38
721.573	4.38
722.325	4.38
723.077	5.38
723.829	6.38
724.581	6.38
725.333	6.38
726.085	4.38
726.836	7.38
727.588	7.38
728.34	6.38
729.091	6.38
729.843	6.38
730.594	8.38
731.346	3.38
732.097	7.38
732.848	5.38
733.599	6.38
734.35	7.38
735.101	6.38
735.852	6.38
736.603	6.38
737.354	6.38
738.104	7.38
738.855	9.38
739.605	7.38
740.356	8.38
741.106	5.38
741.856	7.38
742.607	9.38
743.357	6.38
744.107	8.38
744.857	8.38
745.607	7.38
746.357	7.38
747.106	6.38
747.856	5.38
748.606	5.38
749.355	8.38
750.105	7.38
750.854	8.38
751.603	7.38
752.353	8.38
753.102	5.38
753.851	11.38
754.6	6.38
755.349	8.38
756.098	9.38
756.847	8.38
757.595	10.38
758.344	8.38
759.093	10.38
759.841	9.38
760.589	9.38
761.338	8.38
762.086	11.38
762.834	9.38
763.582	11.38
764.331	7.38
765.079	10.38
765.826	10.38
766.574	11.38
767.322	11.38
768.07	10.38
768.817	7.38
769.565	12.38
770.312	10.38
771.06	10.38
771.807	10.38
772.554	11.38
773.302	11.38
774.049	12.38
774.796	11.38
775.543	13.38
776.29	10.38
777.036	13.38
777.783	11.38
778.53	13.38
779.276	12.38
780.023	12.38
780.769	12.38
781.516	14.38
782.262	10.38
783.008	12.38
783.754	11.38
784.5	12.38
785.246	12.38
785.992	13.38
786.738	14.38
787.484	12.38
788.23	11.38
788.975	13.38
789.721	13.38
790.466	12.38
791.212	14.38
791.957	10.38
792.702	12.38
793.447	12.38
794.193	7.38
794.938	10.38
795.683	14.38
796.427	11.38
797.172	9.38
797.917	10.38
798.662	9.38
799.406	10.38
800.151	10.38
800.895	9.38
801.64	7.38
802.384	9.38
803.128	6.38
803.872	10.38
804.616	10.38
805.36	9.38
806.104	7.38
806.848	10.38
807.592	7.38
808.336	7.38
809.079	7.38
809.823	7.38
810.566	6.38
811.31	6.38
812.053	5.38
812.796	7.38
813.539	7.38
814.283	6.38
815.026	5.38
815.769	6.38
816.511	5.38
817.254	5.38
817.997	8.38
818.74	5.38
819.482	7.38
820.225	5.38
820.967	5.38
821.71	6.38
822.452	6.38
823.194	5.38
823.936	7.38
824.678	6.38
825.42	7.38
826.162	5.38
826.904	5.38
827.646	3.38
828.388	5.38
829.129	4.38
829.871	5.38
830.612	6.38
831.354	6.38
832.095	6.38
832.836	4.38
833.577	3.38
834.319	5.38
835.06	5.38
835.801	5.38
836.542	3.38
837.282	3.38
838.023	4.38
838.764	5.38
839.504	3.38
840.245	6.38
840.985	5.38
841.726	2.38
842.466	4.38
843.206	4.38
843.946	3.38
844.687	4.38
845.427	1.38
846.166	5.38
846.906	3.38
847.646	6.38
848.386	5.38
849.125	4.38
849.865	3.38
850.605	3.38
851.344	3.38
852.083	3.38
852.823	5.38
853.562	4.38
854.301	1.38
855.04	4.38
855.779	4.38
856.518	4.38
857.257	4.38
857.995	2.38
858.734	5.38
859.473	2.38
860.211	1.38
860.95	2.38
861.688	2.38
862.426	3.38
863.165	2.38
863.903	2.38
864.641	1.38
865.379	3.38
866.117	2.38
866.855	2.38
867.593	2.38
868.33	2.38
869.068	2.38
869.806	-1.62
870.543	2.38
871.28	2.38
872.018	3.38
872.755	1.38
873.492	2.38
874.229	1.38
874.967	3.38
875.703	0.38
876.44	4.38
877.177	3.38
877.914	1.38
878.651	2.38
879.387	1.38
880.124	1.38
880.86	2.38
881.597	0.38
882.333	2.38
883.069	3.38
883.806	0.38
884.542	0.38
885.278	0.38
886.014	2.38
886.749	-0.62
887.485	1.38
888.221	-0.62
888.957	4.38
889.692	2.38
890.428	0.38
891.163	0.38
891.899	1.38
892.634	0.38
893.369	0.38
894.104	2.38
894.839	2.38
895.574	1.38
896.309	-0.62
897.044	0.38
897.779	1.38
898.514	0.38
899.248	2.38
899.983	1.38
900.717	0.38
901.452	-2.62
902.186	0.38
902.92	1.38
903.654	0.38
904.389	1.38
905.123	-0.62
905.857	0.38
906.59	-1.62
907.324	2.38
908.058	2.38
908.792	1.38
909.525	-0.62
910.259	-1.62
910.992	1.38
911.726	0.38
912.459	0.38
913.192	2.38
913.925	0.38
914.658	1.38
915.391	0.38
916.124	2.38
916.857	-0.62
917.59	0.38
918.323	0.38
919.055	-1.62
919.788	-0.62
920.521	1.38
921.253	3.38
921.985	-0.62
922.718	-1.62
923.45	1.38
924.182	-0.62
924.914	0.38
925.646	0.38
926.378	1.38
927.11	1.38
927.841	0.38
928.573	0.38
929.305	-1.62
930.036	2.38
930.768	-0.62
931.499	1.38
932.23	0.38
932.962	-1.62
933.693	0.38
934.424	0.38
935.155	2.38
935.886	1.38
936.617	0.38
937.348	0.38
938.078	1.38
938.809	0.38
939.54	1.38
940.27	1.38
941.001	1.38
941.731	1.38
942.461	0.38
943.191	0.38
943.922	0.38
944.652	1.38
945.382	0.38
946.112	1.38
946.841	0.38
947.571	0.38
948.301	0.38
949.031	-2.62
949.76	0.38
950.49	2.38
951.219	-0.62
951.948	-0.62
952.678	1.38
953.407	-1.62
954.136	0.38
954.865	-0.62
955.594	-1.62
956.323	1.38
957.052	-0.62
957.78	-0.62
958.509	1.38
959.238	1.38
959.966	0.38
960.695	0.38
961.423	0.38
962.151	1.38
962.88	0.38
963.608	4.38
964.336	1.38
965.064	2.38
965.792	0.38
966.52	-0.62
967.247	0.38
967.975	-2.62
968.703	1.38
969.43	-0.62
970.158	0.38
970.885	-0.62
971.613	3.38
972.34	-1.62
973.067	-0.62
973.794	1.38
974.521	2.38
975.248	0.38
975.975	0.38
976.702	-0.62
977.429	0.38
978.156	0.38
978.882	0.38
979.609	0.38
980.335	0.38
981.062	0.38
981.788	1.38
982.514	1.38
983.24	-0.62
983.967	1.38
984.693	0.38
985.419	0.38
986.144	-0.62
986.87	-0.62
987.596	3.38
988.322	-0.62
989.047	2.38
989.773	3.38
990.498	-0.62
991.224	0.38
991.949	-0.62
992.674	0.38
993.399	3.38
994.124	-1.62
994.849	0.38
995.574	-0.62
996.299	0.38
997.024	-0.62
997.749	1.38
998.473	2.38
999.198	-0.62
999.922	0.38
1000.647	0.38
1001.371	2.38
1002.095	-0.62
1002.82	-0.62
1003.544	-1.62
1004.268	2.38
1004.992	4.38
1005.716	4.38
1006.439	2.38
1007.163	3.38
1007.887	4.38
1008.611	0.38
1009.334	1.38
1010.058	-1.62
1010.781	0.38
1011.504	2.38
1012.228	0.38
1012.951	-0.62
1013.674	-0.62
1014.397	2.38
1015.12	-0.62
