节点500_425_QEPB04081__449__15-55-46-604.txt的数据

Date: Wed Nov 12 15:55:46 CST 2025
User: PC
Spectrometer: QEPB0408
触发模式: 0
积分时间 (秒): 1.000000E-2
Scans to average: 1
启用暗噪声校正: true
启用非线性校正: false
滑动平均宽度: 0
X轴模式: Wavelengths
Number of Pixels in Spectrum: 1044
>>>>>Begin Spectral Data<<<<<
220.843	2.38
221.644	5.38
222.444	1.38
223.244	4.38
224.045	3.38
224.845	4.38
225.645	2.38
226.445	3.38
227.245	4.38
228.045	5.38
228.845	1.38
229.645	2.38
230.444	4.38
231.244	6.38
232.043	5.38
232.843	4.38
233.642	5.38
234.442	5.38
235.241	6.38
236.04	6.38
236.839	4.38
237.638	8.38
238.437	6.38
239.236	7.38
240.035	5.38
240.833	8.38
241.632	7.38
242.43	8.38
243.229	8.38
244.027	5.38
244.826	7.38
245.624	9.38
246.422	10.38
247.22	11.38
248.018	5.38
248.816	8.38
249.614	6.38
250.412	9.38
251.21	10.38
252.007	11.38
252.805	10.38
253.602	9.38
254.4	9.38
255.197	9.38
255.994	10.38
256.791	10.38
257.589	13.38
258.386	12.38
259.183	11.38
259.979	15.38
260.776	14.38
261.573	12.38
262.37	15.38
263.166	14.38
263.963	18.38
264.759	17.38
265.556	16.38
266.352	17.38
267.148	18.38
267.944	17.38
268.74	16.38
269.536	18.38
270.332	20.38
271.128	20.38
271.924	18.38
272.719	19.38
273.515	20.38
274.311	23.38
275.106	23.38
275.901	22.38
276.697	22.38
277.492	23.38
278.287	20.38
279.082	20.38
279.877	22.38
280.672	25.38
281.467	27.38
282.262	20.38
283.056	25.38
283.851	24.38
284.646	23.38
285.44	21.38
286.234	23.38
287.029	20.38
287.823	22.38
288.617	23.38
289.411	22.38
290.205	23.38
290.999	23.38
291.793	18.38
292.587	21.38
293.381	22.38
294.174	22.38
294.968	19.38
295.761	19.38
296.555	18.38
297.348	20.38
298.141	21.38
298.935	22.38
299.728	18.38
300.521	18.38
301.314	20.38
302.107	18.38
302.899	16.38
303.692	17.38
304.485	16.38
305.277	15.38
306.07	16.38
306.862	14.38
307.655	16.38
308.447	14.38
309.239	14.38
310.031	14.38
310.823	13.38
311.615	12.38
312.407	12.38
313.199	16.38
313.991	11.38
314.783	12.38
315.574	12.38
316.366	9.38
317.157	12.38
317.949	12.38
318.74	11.38
319.531	12.38
320.322	11.38
321.113	8.38
321.904	10.38
322.695	11.38
323.486	8.38
324.277	11.38
325.068	9.38
325.858	7.38
326.649	9.38
327.439	9.38
328.23	9.38
329.02	9.38
329.81	8.38
330.6	10.38
331.391	10.38
332.181	7.38
332.971	8.38
333.76	6.38
334.55	8.38
335.34	8.38
336.13	9.38
336.919	9.38
337.709	10.38
338.498	9.38
339.287	8.38
340.077	10.38
340.866	7.38
341.655	8.38
342.444	9.38
343.233	8.38
344.022	9.38
344.811	9.38
345.6	9.38
346.388	10.38
347.177	8.38
347.965	8.38
348.754	6.38
349.542	10.38
350.33	5.38
351.119	8.38
351.907	8.38
352.695	5.38
353.483	10.38
354.271	6.38
355.059	6.38
355.846	9.38
356.634	8.38
357.422	7.38
358.209	9.38
358.997	6.38
359.784	9.38
360.571	8.38
361.359	9.38
362.146	7.38
362.933	8.38
363.72	8.38
364.507	6.38
365.294	6.38
366.081	8.38
366.867	6.38
367.654	4.38
368.44	9.38
369.227	8.38
370.013	5.38
370.8	5.38
371.586	8.38
372.372	5.38
373.158	7.38
373.944	7.38
374.73	7.38
375.516	7.38
376.302	5.38
377.088	5.38
377.873	7.38
378.659	5.38
379.445	5.38
380.23	7.38
381.015	7.38
381.801	8.38
382.586	5.38
383.371	7.38
384.156	6.38
384.941	5.38
385.726	8.38
386.511	8.38
387.296	9.38
388.08	8.38
388.865	7.38
389.649	10.38
390.434	8.38
391.218	11.38
392.003	7.38
392.787	10.38
393.571	9.38
394.355	7.38
395.139	8.38
395.923	6.38
396.707	9.38
397.491	8.38
398.274	9.38
399.058	8.38
399.842	10.38
400.625	9.38
401.408	8.38
402.192	11.38
402.975	10.38
403.758	9.38
404.541	10.38
405.324	10.38
406.107	11.38
406.89	8.38
407.673	10.38
408.456	10.38
409.238	11.38
410.021	10.38
410.803	9.38
411.586	13.38
412.368	10.38
413.151	10.38
413.933	10.38
414.715	11.38
415.497	10.38
416.279	12.38
417.061	13.38
417.843	12.38
418.624	11.38
419.406	13.38
420.188	12.38
420.969	15.38
421.751	15.38
422.532	16.38
423.313	15.38
424.095	16.38
424.876	18.38
425.657	18.38
426.438	16.38
427.219	16.38
428	17.38
428.78	17.38
429.561	18.38
430.342	19.38
431.122	20.38
431.903	18.38
432.683	23.38
433.464	22.38
434.244	24.38
435.024	22.38
435.804	26.38
436.584	25.38
437.364	25.38
438.144	30.38
438.924	30.38
439.704	33.38
440.483	35.38
441.263	35.38
442.042	39.38
442.822	39.38
443.601	45.38
444.38	47.38
445.16	50.38
445.939	55.38
446.718	56.38
447.497	64.38
448.276	66.38
449.054	76.38
449.833	78.38
450.612	88.38
451.391	99.38
452.169	113.38
452.948	117.38
453.726	131.38
454.504	146.38
455.282	161.38
456.061	178.38
456.839	196.38
457.617	213.38
458.395	249.38
459.172	271.38
459.95	301.38
460.728	338.38
461.506	380.38
462.283	420.38
463.061	466.38
463.838	522.38
464.615	576.38
465.393	639.38
466.17	717.38
466.947	795.38
467.724	876.38
468.501	968.38
469.278	1077.38
470.055	1193.38
470.831	1298.38
471.608	1447.38
472.385	1623.38
473.161	1777.38
473.938	1951.38
474.714	2168.38
475.49	2376.38
476.266	2614.38
477.043	2887.38
477.819	3151.38
478.595	3443.38
479.371	3798.38
480.146	4150.38
480.922	4518.38
481.698	4921.38
482.473	5365.38
483.249	5888.38
484.024	6426.38
484.8	7025.38
485.575	7640.38
486.35	8283.38
487.126	9002.38
487.901	9767.38
488.676	10630.38
489.451	11512.38
490.225	12485.38
491	13500.38
491.775	14604.38
492.55	15677.38
493.324	16901.38
494.099	18038.38
494.873	19289.38
495.647	20552.38
496.422	21844.38
497.196	23237.38
497.97	24680.38
498.744	25980.38
499.518	27272.38
500.292	28418.38
501.066	29536.38
501.839	30656.38
502.613	31660.38
503.387	32391.38
504.16	33046.38
504.934	33379.38
505.707	33653.38
506.48	33766.38
507.253	33624.38
508.027	33419.38
508.8	33011.38
509.573	32456.38
510.346	31843.38
511.118	31027.38
511.891	30140.38
512.664	29129.38
513.437	28145.38
514.209	27109.38
514.982	26183.38
515.754	25193.38
516.526	24106.38
517.298	23111.38
518.071	22155.38
518.843	21281.38
519.615	20455.38
520.387	19659.38
521.159	18879.38
521.93	18170.38
522.702	17455.38
523.474	16740.38
524.245	16102.38
525.017	15402.38
525.788	14644.38
526.56	14013.38
527.331	13430.38
528.102	12787.38
528.873	12187.38
529.644	11697.38
530.415	11149.38
531.186	10635.38
531.957	10057.38
532.728	9578.38
533.498	9059.38
534.269	8552.38
535.039	8068.38
535.81	7670.38
536.58	7244.38
537.351	6843.38
538.121	6473.38
538.891	6126.38
539.661	5805.38
540.431	5496.38
541.201	5219.38
541.971	4944.38
542.741	4686.38
543.51	4436.38
544.28	4234.38
545.05	4008.38
545.819	3835.38
546.588	3659.38
547.358	3446.38
548.127	3268.38
548.896	3114.38
549.665	2970.38
550.434	2825.38
551.203	2666.38
551.972	2532.38
552.741	2402.38
553.51	2242.38
554.278	2120.38
555.047	2006.38
555.815	1899.38
556.584	1798.38
557.352	1700.38
558.121	1601.38
558.889	1512.38
559.657	1426.38
560.425	1350.38
561.193	1283.38
561.961	1207.38
562.729	1151.38
563.496	1086.38
564.264	1033.38
565.032	956.38
565.799	908.38
566.567	875.38
567.334	817.38
568.101	772.38
568.869	740.38
569.636	679.38
570.403	646.38
571.17	613.38
571.937	574.38
572.704	543.38
573.471	522.38
574.237	487.38
575.004	462.38
575.771	422.38
576.537	406.38
577.303	382.38
578.07	354.38
578.836	341.38
579.602	317.38
580.368	301.38
581.134	291.38
581.9	277.38
582.666	266.38
583.432	249.38
584.198	234.38
584.964	222.38
585.729	216.38
586.495	199.38
587.26	191.38
588.025	181.38
588.791	171.38
589.556	157.38
590.321	160.38
591.086	149.38
591.851	134.38
592.616	132.38
593.381	127.38
594.146	118.38
594.911	113.38
595.675	107.38
596.44	104.38
597.204	96.38
597.969	93.38
598.733	92.38
599.497	85.38
600.261	82.38
601.025	78.38
601.79	75.38
602.553	72.38
603.317	67.38
604.081	64.38
604.845	63.38
605.609	60.38
606.372	58.38
607.136	55.38
607.899	55.38
608.662	50.38
609.426	48.38
610.189	44.38
610.952	45.38
611.715	43.38
612.478	43.38
613.241	38.38
614.004	43.38
614.767	36.38
615.529	39.38
616.292	34.38
617.055	34.38
617.817	35.38
618.579	33.38
619.342	27.38
620.104	31.38
620.866	28.38
621.628	25.38
622.39	26.38
623.152	24.38
623.914	23.38
624.676	24.38
625.438	22.38
626.199	21.38
626.961	22.38
627.722	20.38
628.484	19.38
629.245	18.38
630.006	18.38
630.768	20.38
631.529	17.38
632.29	19.38
633.051	14.38
633.812	16.38
634.573	18.38
635.333	14.38
636.094	17.38
636.855	16.38
637.615	16.38
638.376	14.38
639.136	12.38
639.896	13.38
640.657	16.38
641.417	13.38
642.177	13.38
642.937	11.38
643.697	11.38
644.457	12.38
645.216	13.38
645.976	12.38
646.736	12.38
647.495	13.38
648.255	11.38
649.014	11.38
649.774	10.38
650.533	10.38
651.292	8.38
652.051	7.38
652.81	11.38
653.569	8.38
654.328	10.38
655.087	8.38
655.846	8.38
656.604	8.38
657.363	10.38
658.121	8.38
658.88	6.38
659.638	7.38
660.397	6.38
661.155	6.38
661.913	5.38
662.671	7.38
663.429	7.38
664.187	8.38
664.945	6.38
665.703	7.38
666.46	7.38
667.218	7.38
667.976	7.38
668.733	4.38
669.49	6.38
670.248	3.38
671.005	5.38
671.762	5.38
672.519	6.38
673.276	6.38
674.033	7.38
674.79	5.38
675.547	8.38
676.304	7.38
677.06	5.38
677.817	5.38
678.574	4.38
679.33	4.38
680.086	7.38
680.843	3.38
681.599	5.38
682.355	5.38
683.111	4.38
683.867	6.38
684.623	6.38
685.379	6.38
686.135	5.38
686.89	4.38
687.646	5.38
688.402	4.38
689.157	6.38
689.912	5.38
690.668	6.38
691.423	3.38
692.178	5.38
692.933	6.38
693.688	4.38
694.443	7.38
695.198	5.38
695.953	7.38
696.708	3.38
697.462	3.38
698.217	5.38
698.972	4.38
699.726	4.38
700.48	3.38
701.235	4.38
701.989	5.38
702.743	5.38
703.497	6.38
704.251	5.38
705.005	6.38
705.759	4.38
706.513	6.38
707.266	4.38
708.02	4.38
708.774	5.38
709.527	5.38
710.28	2.38
711.034	5.38
711.787	6.38
712.54	4.38
713.293	5.38
714.046	5.38
714.799	5.38
715.552	5.38
716.305	4.38
717.058	3.38
717.81	4.38
718.563	4.38
719.315	5.38
720.068	7.38
720.82	6.38
721.573	5.38
722.325	5.38
723.077	5.38
723.829	4.38
724.581	2.38
725.333	2.38
726.085	5.38
726.836	7.38
727.588	5.38
728.34	5.38
729.091	4.38
729.843	5.38
730.594	7.38
731.346	3.38
732.097	6.38
732.848	6.38
733.599	3.38
734.35	6.38
735.101	4.38
735.852	8.38
736.603	6.38
737.354	6.38
738.104	6.38
738.855	4.38
739.605	5.38
740.356	5.38
741.106	7.38
741.856	6.38
742.607	6.38
743.357	6.38
744.107	8.38
744.857	9.38
745.607	7.38
746.357	4.38
747.106	8.38
747.856	6.38
748.606	8.38
749.355	6.38
750.105	5.38
750.854	6.38
751.603	7.38
752.353	8.38
753.102	4.38
753.851	9.38
754.6	7.38
755.349	7.38
756.098	7.38
756.847	6.38
757.595	7.38
758.344	8.38
759.093	8.38
759.841	7.38
760.589	7.38
761.338	6.38
762.086	10.38
762.834	8.38
763.582	5.38
764.331	11.38
765.079	6.38
765.826	10.38
766.574	9.38
767.322	9.38
768.07	9.38
768.817	9.38
769.565	9.38
770.312	10.38
771.06	11.38
771.807	11.38
772.554	8.38
773.302	8.38
774.049	10.38
774.796	10.38
775.543	9.38
776.29	9.38
777.036	12.38
777.783	10.38
778.53	12.38
779.276	8.38
780.023	11.38
780.769	11.38
781.516	10.38
782.262	11.38
783.008	10.38
783.754	10.38
784.5	10.38
785.246	10.38
785.992	10.38
786.738	12.38
787.484	12.38
788.23	11.38
788.975	10.38
789.721	10.38
790.466	9.38
791.212	12.38
791.957	10.38
792.702	11.38
793.447	12.38
794.193	10.38
794.938	10.38
795.683	10.38
796.427	9.38
797.172	10.38
797.917	8.38
798.662	7.38
799.406	9.38
800.151	8.38
800.895	9.38
801.64	10.38
802.384	7.38
803.128	9.38
803.872	8.38
804.616	8.38
805.36	7.38
806.104	6.38
806.848	5.38
807.592	6.38
808.336	9.38
809.079	8.38
809.823	9.38
810.566	6.38
811.31	7.38
812.053	6.38
812.796	10.38
813.539	4.38
814.283	7.38
815.026	7.38
815.769	6.38
816.511	7.38
817.254	5.38
817.997	5.38
818.74	6.38
819.482	5.38
820.225	8.38
820.967	6.38
821.71	6.38
822.452	4.38
823.194	6.38
823.936	5.38
824.678	6.38
825.42	4.38
826.162	3.38
826.904	4.38
827.646	4.38
828.388	4.38
829.129	4.38
829.871	4.38
830.612	5.38
831.354	4.38
832.095	7.38
832.836	3.38
833.577	3.38
834.319	6.38
835.06	4.38
835.801	3.38
836.542	4.38
837.282	5.38
838.023	1.38
838.764	5.38
839.504	3.38
840.245	2.38
840.985	5.38
841.726	2.38
842.466	2.38
843.206	4.38
843.946	4.38
844.687	4.38
845.427	5.38
846.166	3.38
846.906	5.38
847.646	4.38
848.386	4.38
849.125	4.38
849.865	4.38
850.605	6.38
851.344	3.38
852.083	4.38
852.823	2.38
853.562	2.38
854.301	4.38
855.04	4.38
855.779	5.38
856.518	3.38
857.257	3.38
857.995	1.38
858.734	4.38
859.473	2.38
860.211	3.38
860.95	3.38
861.688	1.38
862.426	2.38
863.165	1.38
863.903	5.38
864.641	2.38
865.379	1.38
866.117	2.38
866.855	2.38
867.593	2.38
868.33	0.38
869.068	1.38
869.806	-0.62
870.543	3.38
871.28	2.38
872.018	2.38
872.755	2.38
873.492	4.38
874.229	1.38
874.967	1.38
875.703	2.38
876.44	2.38
877.177	1.38
877.914	0.38
878.651	1.38
879.387	0.38
880.124	3.38
880.86	0.38
881.597	2.38
882.333	1.38
883.069	1.38
883.806	0.38
884.542	-0.62
885.278	0.38
886.014	3.38
886.749	-0.62
887.485	1.38
888.221	1.38
888.957	2.38
889.692	0.38
890.428	1.38
891.163	0.38
891.899	2.38
892.634	2.38
893.369	0.38
894.104	1.38
894.839	0.38
895.574	1.38
896.309	0.38
897.044	-2.62
897.779	2.38
898.514	1.38
899.248	0.38
899.983	2.38
900.717	-0.62
901.452	2.38
902.186	-0.62
902.92	1.38
903.654	2.38
904.389	0.38
905.123	0.38
905.857	0.38
906.59	0.38
907.324	1.38
908.058	0.38
908.792	3.38
909.525	0.38
910.259	1.38
910.992	1.38
911.726	0.38
912.459	1.38
913.192	3.38
913.925	3.38
914.658	1.38
915.391	-1.62
916.124	2.38
916.857	0.38
917.59	0.38
918.323	1.38
919.055	3.38
919.788	0.38
920.521	-0.62
921.253	1.38
921.985	0.38
922.718	1.38
923.45	0.38
924.182	1.38
924.914	-0.62
925.646	0.38
926.378	2.38
927.11	1.38
927.841	1.38
928.573	-0.62
929.305	-0.62
930.036	1.38
930.768	-1.62
931.499	-1.62
932.23	-1.62
932.962	0.38
933.693	0.38
934.424	-0.62
935.155	-1.62
935.886	-1.62
936.617	0.38
937.348	0.38
938.078	3.38
938.809	0.38
939.54	-0.62
940.27	-0.62
941.001	1.38
941.731	0.38
942.461	0.38
943.191	-1.62
943.922	2.38
944.652	-0.62
945.382	2.38
946.112	2.38
946.841	1.38
947.571	2.38
948.301	1.38
949.031	0.38
949.76	0.38
950.49	0.38
951.219	-1.62
951.948	-1.62
952.678	0.38
953.407	0.38
954.136	1.38
954.865	0.38
955.594	0.38
956.323	-0.62
957.052	1.38
957.78	-0.62
958.509	0.38
959.238	1.38
959.966	-0.62
960.695	2.38
961.423	2.38
962.151	-0.62
962.88	1.38
963.608	-2.62
964.336	2.38
965.064	0.38
965.792	0.38
966.52	1.38
967.247	0.38
967.975	2.38
968.703	1.38
969.43	0.38
970.158	1.38
970.885	0.38
971.613	-0.62
972.34	-1.62
973.067	-0.62
973.794	1.38
974.521	0.38
975.248	-0.62
975.975	-1.62
976.702	0.38
977.429	-1.62
978.156	0.38
978.882	0.38
979.609	-1.62
980.335	2.38
981.062	-0.62
981.788	0.38
982.514	1.38
983.24	-0.62
983.967	0.38
984.693	0.38
985.419	-1.62
986.144	0.38
986.87	0.38
987.596	0.38
988.322	0.38
989.047	0.38
989.773	-1.62
990.498	-1.62
991.224	0.38
991.949	-0.62
992.674	2.38
993.399	-0.62
994.124	0.38
994.849	0.38
995.574	2.38
996.299	1.38
997.024	-0.62
997.749	2.38
998.473	-0.62
999.198	2.38
999.922	1.38
1000.647	0.38
1001.371	3.38
1002.095	-1.62
1002.82	0.38
1003.544	-1.62
1004.268	4.38
1004.992	1.38
1005.716	2.38
1006.439	0.38
1007.163	2.38
1007.887	3.38
1008.611	0.38
1009.334	2.38
1010.058	1.38
1010.781	0.38
1011.504	2.38
1012.228	0.38
1012.951	1.38
1013.674	1.38
1014.397	-2.62
1015.12	-0.62
