节点500_425_QEPB04081__48__15-49-06-420.txt的数据

Date: Wed Nov 12 15:49:06 CST 2025
User: PC
Spectrometer: QEPB0408
触发模式: 0
积分时间 (秒): 1.000000E-2
Scans to average: 1
启用暗噪声校正: true
启用非线性校正: false
滑动平均宽度: 0
X轴模式: Wavelengths
Number of Pixels in Spectrum: 1044
>>>>>Begin Spectral Data<<<<<
220.843	2.25
221.644	2.25
222.444	4.25
223.244	2.25
224.045	4.25
224.845	6.25
225.645	2.25
226.445	5.25
227.245	2.25
228.045	5.25
228.845	5.25
229.645	5.25
230.444	5.25
231.244	5.25
232.043	6.25
232.843	7.25
233.642	4.25
234.442	6.25
235.241	2.25
236.04	9.25
236.839	4.25
237.638	7.25
238.437	9.25
239.236	8.25
240.035	7.25
240.833	9.25
241.632	7.25
242.43	6.25
243.229	7.25
244.027	9.25
244.826	8.25
245.624	12.25
246.422	8.25
247.22	8.25
248.018	10.25
248.816	7.25
249.614	7.25
250.412	11.25
251.21	10.25
252.007	9.25
252.805	14.25
253.602	11.25
254.4	10.25
255.197	11.25
255.994	12.25
256.791	12.25
257.589	14.25
258.386	13.25
259.183	14.25
259.979	14.25
260.776	16.25
261.573	15.25
262.37	17.25
263.166	20.25
263.963	18.25
264.759	19.25
265.556	18.25
266.352	20.25
267.148	18.25
267.944	21.25
268.74	21.25
269.536	19.25
270.332	22.25
271.128	22.25
271.924	25.25
272.719	23.25
273.515	22.25
274.311	25.25
275.106	26.25
275.901	25.25
276.697	25.25
277.492	27.25
278.287	25.25
279.082	26.25
279.877	25.25
280.672	26.25
281.467	29.25
282.262	28.25
283.056	26.25
283.851	27.25
284.646	26.25
285.44	26.25
286.234	23.25
287.029	28.25
287.823	26.25
288.617	24.25
289.411	25.25
290.205	23.25
290.999	26.25
291.793	26.25
292.587	23.25
293.381	23.25
294.174	23.25
294.968	23.25
295.761	20.25
296.555	20.25
297.348	20.25
298.141	20.25
298.935	22.25
299.728	18.25
300.521	19.25
301.314	17.25
302.107	19.25
302.899	17.25
303.692	17.25
304.485	15.25
305.277	17.25
306.07	18.25
306.862	17.25
307.655	15.25
308.447	13.25
309.239	15.25
310.031	14.25
310.823	13.25
311.615	12.25
312.407	12.25
313.199	12.25
313.991	14.25
314.783	10.25
315.574	13.25
316.366	13.25
317.157	11.25
317.949	12.25
318.74	12.25
319.531	10.25
320.322	11.25
321.113	10.25
321.904	11.25
322.695	10.25
323.486	9.25
324.277	9.25
325.068	7.25
325.858	7.25
326.649	10.25
327.439	9.25
328.23	8.25
329.02	8.25
329.81	7.25
330.6	9.25
331.391	9.25
332.181	10.25
332.971	10.25
333.76	9.25
334.55	8.25
335.34	11.25
336.13	7.25
336.919	9.25
337.709	8.25
338.498	8.25
339.287	7.25
340.077	9.25
340.866	11.25
341.655	7.25
342.444	9.25
343.233	8.25
344.022	9.25
344.811	9.25
345.6	8.25
346.388	7.25
347.177	8.25
347.965	8.25
348.754	6.25
349.542	9.25
350.33	9.25
351.119	6.25
351.907	8.25
352.695	7.25
353.483	9.25
354.271	8.25
355.059	7.25
355.846	7.25
356.634	5.25
357.422	8.25
358.209	8.25
358.997	9.25
359.784	10.25
360.571	7.25
361.359	6.25
362.146	9.25
362.933	9.25
363.72	6.25
364.507	7.25
365.294	7.25
366.081	5.25
366.867	7.25
367.654	4.25
368.44	6.25
369.227	7.25
370.013	8.25
370.8	6.25
371.586	7.25
372.372	9.25
373.158	7.25
373.944	7.25
374.73	9.25
375.516	6.25
376.302	5.25
377.088	7.25
377.873	6.25
378.659	9.25
379.445	8.25
380.23	7.25
381.015	7.25
381.801	7.25
382.586	7.25
383.371	8.25
384.156	7.25
384.941	6.25
385.726	10.25
386.511	8.25
387.296	8.25
388.08	8.25
388.865	8.25
389.649	8.25
390.434	8.25
391.218	9.25
392.003	8.25
392.787	10.25
393.571	9.25
394.355	7.25
395.139	8.25
395.923	9.25
396.707	10.25
397.491	10.25
398.274	8.25
399.058	10.25
399.842	9.25
400.625	9.25
401.408	8.25
402.192	12.25
402.975	9.25
403.758	12.25
404.541	9.25
405.324	12.25
406.107	10.25
406.89	12.25
407.673	9.25
408.456	9.25
409.238	10.25
410.021	10.25
410.803	11.25
411.586	12.25
412.368	13.25
413.151	11.25
413.933	11.25
414.715	13.25
415.497	12.25
416.279	13.25
417.061	17.25
417.843	14.25
418.624	13.25
419.406	12.25
420.188	15.25
420.969	15.25
421.751	16.25
422.532	15.25
423.313	14.25
424.095	13.25
424.876	20.25
425.657	17.25
426.438	18.25
427.219	18.25
428	20.25
428.78	19.25
429.561	19.25
430.342	23.25
431.122	19.25
431.903	22.25
432.683	22.25
433.464	24.25
434.244	24.25
435.024	21.25
435.804	24.25
436.584	26.25
437.364	27.25
438.144	29.25
438.924	30.25
439.704	33.25
440.483	28.25
441.263	36.25
442.042	36.25
442.822	39.25
443.601	40.25
444.38	43.25
445.16	48.25
445.939	50.25
446.718	53.25
447.497	60.25
448.276	63.25
449.054	68.25
449.833	74.25
450.612	78.25
451.391	86.25
452.169	96.25
452.948	106.25
453.726	116.25
454.504	128.25
455.282	140.25
456.061	159.25
456.839	170.25
457.617	190.25
458.395	210.25
459.172	235.25
459.95	267.25
460.728	291.25
461.506	323.25
462.283	369.25
463.061	419.25
463.838	460.25
464.615	518.25
465.393	579.25
466.17	653.25
466.947	722.25
467.724	805.25
468.501	905.25
469.278	988.25
470.055	1118.25
470.831	1243.25
471.608	1395.25
472.385	1556.25
473.161	1728.25
473.938	1915.25
474.714	2134.25
475.49	2353.25
476.266	2590.25
477.043	2880.25
477.819	3208.25
478.595	3562.25
479.371	3945.25
480.146	4323.25
480.922	4757.25
481.698	5298.25
482.473	5827.25
483.249	6412.25
484.024	7091.25
484.8	7810.25
485.575	8549.25
486.35	9376.25
487.126	10278.25
487.901	11250.25
488.676	12343.25
489.451	13502.25
490.225	14696.25
491	15994.25
491.775	17359.25
492.55	18828.25
493.324	20287.25
494.099	21782.25
494.873	23290.25
495.647	24886.25
496.422	26504.25
497.196	27995.25
497.97	29682.25
498.744	31181.25
499.518	32650.25
500.292	33891.25
501.066	35001.25
501.839	35911.25
502.613	36696.25
503.387	37303.25
504.16	37644.25
504.934	37812.25
505.707	37473.25
506.48	37028.25
507.253	36597.25
508.027	35995.25
508.8	35071.25
509.573	34059.25
510.346	33017.25
511.118	31859.25
511.891	30707.25
512.664	29476.25
513.437	28138.25
514.209	26886.25
514.982	25794.25
515.754	24672.25
516.526	23604.25
517.298	22535.25
518.071	21585.25
518.843	20744.25
519.615	19850.25
520.387	19039.25
521.159	18372.25
521.93	17624.25
522.702	16931.25
523.474	16308.25
524.245	15594.25
525.017	14867.25
525.788	14175.25
526.56	13529.25
527.331	12838.25
528.102	12253.25
528.873	11617.25
529.644	11033.25
530.415	10470.25
531.186	9960.25
531.957	9394.25
532.728	8888.25
533.498	8346.25
534.269	7904.25
535.039	7494.25
535.81	7047.25
536.58	6646.25
537.351	6235.25
538.121	5911.25
538.891	5639.25
539.661	5311.25
540.431	5068.25
541.201	4766.25
541.971	4529.25
542.741	4290.25
543.51	4060.25
544.28	3862.25
545.05	3675.25
545.819	3516.25
546.588	3334.25
547.358	3161.25
548.127	2981.25
548.896	2829.25
549.665	2673.25
550.434	2557.25
551.203	2417.25
551.972	2281.25
552.741	2159.25
553.51	2052.25
554.278	1918.25
555.047	1813.25
555.815	1706.25
556.584	1623.25
557.352	1511.25
558.121	1435.25
558.889	1356.25
559.657	1273.25
560.425	1210.25
561.193	1141.25
561.961	1081.25
562.729	1028.25
563.496	967.25
564.264	907.25
565.032	863.25
565.799	810.25
566.567	779.25
567.334	729.25
568.101	700.25
568.869	642.25
569.636	616.25
570.403	581.25
571.17	539.25
571.937	512.25
572.704	482.25
573.471	458.25
574.237	444.25
575.004	407.25
575.771	386.25
576.537	365.25
577.303	341.25
578.07	321.25
578.836	309.25
579.602	278.25
580.368	268.25
581.134	260.25
581.9	244.25
582.666	232.25
583.432	213.25
584.198	208.25
584.964	195.25
585.729	190.25
586.495	180.25
587.26	170.25
588.025	152.25
588.791	150.25
589.556	148.25
590.321	137.25
591.086	130.25
591.851	118.25
592.616	116.25
593.381	114.25
594.146	106.25
594.911	101.25
595.675	99.25
596.44	89.25
597.204	90.25
597.969	88.25
598.733	83.25
599.497	75.25
600.261	76.25
601.025	74.25
601.79	69.25
602.553	66.25
603.317	62.25
604.081	61.25
604.845	57.25
605.609	52.25
606.372	55.25
607.136	50.25
607.899	49.25
608.662	48.25
609.426	41.25
610.189	44.25
610.952	44.25
611.715	39.25
612.478	39.25
613.241	37.25
614.004	36.25
614.767	33.25
615.529	32.25
616.292	33.25
617.055	31.25
617.817	30.25
618.579	33.25
619.342	28.25
620.104	27.25
620.866	29.25
621.628	24.25
622.39	25.25
623.152	23.25
623.914	25.25
624.676	24.25
625.438	22.25
626.199	22.25
626.961	21.25
627.722	19.25
628.484	16.25
629.245	19.25
630.006	17.25
630.768	16.25
631.529	17.25
632.29	15.25
633.051	16.25
633.812	16.25
634.573	17.25
635.333	15.25
636.094	14.25
636.855	17.25
637.615	13.25
638.376	12.25
639.136	13.25
639.896	13.25
640.657	14.25
641.417	12.25
642.177	13.25
642.937	11.25
643.697	13.25
644.457	13.25
645.216	12.25
645.976	12.25
646.736	10.25
647.495	10.25
648.255	11.25
649.014	11.25
649.774	10.25
650.533	8.25
651.292	9.25
652.051	8.25
652.81	11.25
653.569	10.25
654.328	8.25
655.087	9.25
655.846	7.25
656.604	6.25
657.363	8.25
658.121	7.25
658.88	9.25
659.638	6.25
660.397	10.25
661.155	7.25
661.913	8.25
662.671	6.25
663.429	8.25
664.187	6.25
664.945	6.25
665.703	5.25
666.46	6.25
667.218	7.25
667.976	5.25
668.733	5.25
669.49	8.25
670.248	7.25
671.005	7.25
671.762	8.25
672.519	5.25
673.276	7.25
674.033	7.25
674.79	6.25
675.547	7.25
676.304	5.25
677.06	5.25
677.817	3.25
678.574	5.25
679.33	5.25
680.086	4.25
680.843	5.25
681.599	6.25
682.355	6.25
683.111	6.25
683.867	4.25
684.623	8.25
685.379	7.25
686.135	5.25
686.89	6.25
687.646	6.25
688.402	5.25
689.157	5.25
689.912	5.25
690.668	4.25
691.423	5.25
692.178	5.25
692.933	5.25
693.688	5.25
694.443	5.25
695.198	4.25
695.953	4.25
696.708	7.25
697.462	5.25
698.217	5.25
698.972	5.25
699.726	6.25
700.48	4.25
701.235	4.25
701.989	1.25
702.743	8.25
703.497	4.25
704.251	4.25
705.005	3.25
705.759	6.25
706.513	6.25
707.266	4.25
708.02	6.25
708.774	5.25
709.527	4.25
710.28	5.25
711.034	7.25
711.787	6.25
712.54	5.25
713.293	4.25
714.046	4.25
714.799	4.25
715.552	6.25
716.305	6.25
717.058	5.25
717.81	4.25
718.563	6.25
719.315	4.25
720.068	7.25
720.82	6.25
721.573	4.25
722.325	3.25
723.077	7.25
723.829	8.25
724.581	5.25
725.333	3.25
726.085	4.25
726.836	6.25
727.588	7.25
728.34	3.25
729.091	7.25
729.843	6.25
730.594	4.25
731.346	5.25
732.097	5.25
732.848	8.25
733.599	7.25
734.35	5.25
735.101	5.25
735.852	7.25
736.603	6.25
737.354	6.25
738.104	7.25
738.855	6.25
739.605	4.25
740.356	5.25
741.106	7.25
741.856	6.25
742.607	8.25
743.357	8.25
744.107	6.25
744.857	6.25
745.607	8.25
746.357	7.25
747.106	8.25
747.856	9.25
748.606	9.25
749.355	12.25
750.105	5.25
750.854	7.25
751.603	8.25
752.353	9.25
753.102	7.25
753.851	7.25
754.6	10.25
755.349	7.25
756.098	9.25
756.847	8.25
757.595	8.25
758.344	7.25
759.093	9.25
759.841	11.25
760.589	10.25
761.338	9.25
762.086	9.25
762.834	8.25
763.582	8.25
764.331	9.25
765.079	11.25
765.826	12.25
766.574	11.25
767.322	11.25
768.07	10.25
768.817	11.25
769.565	10.25
770.312	11.25
771.06	13.25
771.807	9.25
772.554	14.25
773.302	10.25
774.049	13.25
774.796	11.25
775.543	11.25
776.29	12.25
777.036	10.25
777.783	9.25
778.53	13.25
779.276	11.25
780.023	13.25
780.769	14.25
781.516	11.25
782.262	12.25
783.008	14.25
783.754	12.25
784.5	12.25
785.246	11.25
785.992	11.25
786.738	13.25
787.484	10.25
788.23	12.25
788.975	13.25
789.721	13.25
790.466	10.25
791.212	11.25
791.957	11.25
792.702	9.25
793.447	11.25
794.193	12.25
794.938	10.25
795.683	12.25
796.427	10.25
797.172	9.25
797.917	7.25
798.662	10.25
799.406	6.25
800.151	9.25
800.895	10.25
801.64	12.25
802.384	9.25
803.128	9.25
803.872	10.25
804.616	7.25
805.36	9.25
806.104	6.25
806.848	7.25
807.592	7.25
808.336	7.25
809.079	8.25
809.823	8.25
810.566	7.25
811.31	7.25
812.053	4.25
812.796	6.25
813.539	7.25
814.283	5.25
815.026	7.25
815.769	7.25
816.511	8.25
817.254	6.25
817.997	8.25
818.74	4.25
819.482	6.25
820.225	5.25
820.967	6.25
821.71	6.25
822.452	4.25
823.194	5.25
823.936	3.25
824.678	5.25
825.42	4.25
826.162	5.25
826.904	6.25
827.646	5.25
828.388	5.25
829.129	6.25
829.871	5.25
830.612	6.25
831.354	4.25
832.095	6.25
832.836	4.25
833.577	5.25
834.319	2.25
835.06	7.25
835.801	4.25
836.542	5.25
837.282	2.25
838.023	3.25
838.764	5.25
839.504	4.25
840.245	4.25
840.985	6.25
841.726	5.25
842.466	3.25
843.206	5.25
843.946	2.25
844.687	4.25
845.427	4.25
846.166	5.25
846.906	4.25
847.646	3.25
848.386	2.25
849.125	3.25
849.865	1.25
850.605	3.25
851.344	6.25
852.083	6.25
852.823	2.25
853.562	3.25
854.301	3.25
855.04	3.25
855.779	1.25
856.518	2.25
857.257	3.25
857.995	4.25
858.734	5.25
859.473	3.25
860.211	2.25
860.95	4.25
861.688	2.25
862.426	2.25
863.165	4.25
863.903	2.25
864.641	2.25
865.379	4.25
866.117	4.25
866.855	1.25
867.593	2.25
868.33	3.25
869.068	1.25
869.806	1.25
870.543	2.25
871.28	2.25
872.018	1.25
872.755	0.25
873.492	2.25
874.229	2.25
874.967	4.25
875.703	1.25
876.44	2.25
877.177	0.25
877.914	3.25
878.651	2.25
879.387	0.25
880.124	1.25
880.86	0.25
881.597	2.25
882.333	2.25
883.069	2.25
883.806	1.25
884.542	3.25
885.278	3.25
886.014	3.25
886.749	0.25
887.485	-0.75
888.221	0.25
888.957	2.25
889.692	1.25
890.428	0.25
891.163	1.25
891.899	2.25
892.634	2.25
893.369	0.25
894.104	2.25
894.839	3.25
895.574	0.25
896.309	0.25
897.044	2.25
897.779	0.25
898.514	1.25
899.248	2.25
899.983	-0.75
900.717	-0.75
901.452	0.25
902.186	-1.75
902.92	2.25
903.654	1.25
904.389	1.25
905.123	-1.75
905.857	0.25
906.59	1.25
907.324	2.25
908.058	0.25
908.792	1.25
909.525	0.25
910.259	2.25
910.992	-1.75
911.726	3.25
912.459	2.25
913.192	1.25
913.925	2.25
914.658	-0.75
915.391	-0.75
916.124	0.25
916.857	0.25
917.59	2.25
918.323	2.25
919.055	1.25
919.788	0.25
920.521	1.25
921.253	1.25
921.985	2.25
922.718	0.25
923.45	0.25
924.182	2.25
924.914	0.25
925.646	2.25
926.378	-0.75
927.11	-1.75
927.841	0.25
928.573	-2.75
929.305	-0.75
930.036	0.25
930.768	-0.75
931.499	0.25
932.23	1.25
932.962	1.25
933.693	0.25
934.424	3.25
935.155	0.25
935.886	0.25
936.617	0.25
937.348	-0.75
938.078	1.25
938.809	-0.75
939.54	0.25
940.27	0.25
941.001	1.25
941.731	0.25
942.461	0.25
943.191	-0.75
943.922	2.25
944.652	1.25
945.382	-0.75
946.112	0.25
946.841	1.25
947.571	-1.75
948.301	1.25
949.031	-0.75
949.76	-0.75
950.49	0.25
951.219	2.25
951.948	-1.75
952.678	-1.75
953.407	0.25
954.136	0.25
954.865	0.25
955.594	0.25
956.323	2.25
957.052	0.25
957.78	0.25
958.509	-0.75
959.238	1.25
959.966	0.25
960.695	1.25
961.423	0.25
962.151	-0.75
962.88	-1.75
963.608	0.25
964.336	1.25
965.064	-0.75
965.792	0.25
966.52	2.25
967.247	2.25
967.975	-1.75
968.703	0.25
969.43	2.25
970.158	-0.75
970.885	1.25
971.613	1.25
972.34	0.25
973.067	-2.75
973.794	1.25
974.521	-1.75
975.248	0.25
975.975	0.25
976.702	-0.75
977.429	-1.75
978.156	-0.75
978.882	1.25
979.609	0.25
980.335	-0.75
981.062	2.25
981.788	1.25
982.514	-3.75
983.24	2.25
983.967	-0.75
984.693	3.25
985.419	-0.75
986.144	1.25
986.87	1.25
987.596	2.25
988.322	0.25
989.047	1.25
989.773	0.25
990.498	0.25
991.224	-0.75
991.949	1.25
992.674	0.25
993.399	-0.75
994.124	0.25
994.849	2.25
995.574	4.25
996.299	0.25
997.024	0.25
997.749	1.25
998.473	1.25
999.198	2.25
999.922	1.25
1000.647	0.25
1001.371	3.25
1002.095	-1.75
1002.82	-3.75
1003.544	-1.75
1004.268	3.25
1004.992	3.25
1005.716	1.25
1006.439	3.25
1007.163	3.25
1007.887	3.25
1008.611	0.25
1009.334	0.25
1010.058	-0.75
1010.781	-1.75
1011.504	2.25
1012.228	3.25
1012.951	1.25
1013.674	0.25
1014.397	1.25
1015.12	1.25
