节点500_425_QEPB04081__581__15-57-58-449.txt的数据

Date: Wed Nov 12 15:57:58 CST 2025
User: PC
Spectrometer: QEPB0408
触发模式: 0
积分时间 (秒): 1.000000E-2
Scans to average: 1
启用暗噪声校正: true
启用非线性校正: false
滑动平均宽度: 0
X轴模式: Wavelengths
Number of Pixels in Spectrum: 1044
>>>>>Begin Spectral Data<<<<<
220.843	3
221.644	3
222.444	1
223.244	1
224.045	1
224.845	3
225.645	3
226.445	1
227.245	5
228.045	0
228.845	5
229.645	4
230.444	6
231.244	4
232.043	3
232.843	4
233.642	2
234.442	7
235.241	6
236.04	4
236.839	8
237.638	4
238.437	5
239.236	5
240.035	7
240.833	6
241.632	4
242.43	6
243.229	7
244.027	8
244.826	7
245.624	6
246.422	10
247.22	6
248.018	6
248.816	8
249.614	9
250.412	8
251.21	8
252.007	10
252.805	8
253.602	7
254.4	8
255.197	9
255.994	11
256.791	10
257.589	11
258.386	11
259.183	12
259.979	11
260.776	8
261.573	14
262.37	16
263.166	13
263.963	16
264.759	14
265.556	16
266.352	14
267.148	13
267.944	17
268.74	20
269.536	17
270.332	17
271.128	19
271.924	18
272.719	21
273.515	20
274.311	21
275.106	21
275.901	19
276.697	22
277.492	21
278.287	24
279.082	22
279.877	21
280.672	22
281.467	20
282.262	22
283.056	22
283.851	22
284.646	24
285.44	24
286.234	23
287.029	22
287.823	22
288.617	22
289.411	22
290.205	19
290.999	24
291.793	21
292.587	22
293.381	21
294.174	22
294.968	21
295.761	19
296.555	19
297.348	19
298.141	17
298.935	18
299.728	19
300.521	18
301.314	21
302.107	16
302.899	15
303.692	14
304.485	17
305.277	18
306.07	19
306.862	16
307.655	15
308.447	13
309.239	17
310.031	15
310.823	14
311.615	12
312.407	13
313.199	13
313.991	10
314.783	11
315.574	12
316.366	10
317.157	12
317.949	9
318.74	9
319.531	8
320.322	10
321.113	9
321.904	10
322.695	10
323.486	9
324.277	10
325.068	10
325.858	11
326.649	9
327.439	10
328.23	9
329.02	7
329.81	10
330.6	9
331.391	6
332.181	7
332.971	8
333.76	7
334.55	8
335.34	7
336.13	9
336.919	9
337.709	6
338.498	6
339.287	11
340.077	8
340.866	8
341.655	8
342.444	5
343.233	7
344.022	10
344.811	9
345.6	9
346.388	10
347.177	7
347.965	8
348.754	8
349.542	9
350.33	6
351.119	9
351.907	8
352.695	8
353.483	7
354.271	8
355.059	7
355.846	7
356.634	6
357.422	6
358.209	7
358.997	6
359.784	6
360.571	8
361.359	5
362.146	7
362.933	6
363.72	6
364.507	7
365.294	6
366.081	8
366.867	7
367.654	7
368.44	5
369.227	5
370.013	8
370.8	8
371.586	8
372.372	7
373.158	6
373.944	6
374.73	3
375.516	6
376.302	8
377.088	7
377.873	6
378.659	4
379.445	7
380.23	5
381.015	5
381.801	6
382.586	8
383.371	8
384.156	6
384.941	9
385.726	7
386.511	7
387.296	8
388.08	8
388.865	6
389.649	6
390.434	8
391.218	7
392.003	9
392.787	9
393.571	8
394.355	8
395.139	9
395.923	7
396.707	8
397.491	9
398.274	9
399.058	6
399.842	10
400.625	9
401.408	8
402.192	8
402.975	10
403.758	7
404.541	9
405.324	12
406.107	10
406.89	9
407.673	9
408.456	7
409.238	8
410.021	10
410.803	10
411.586	11
412.368	11
413.151	12
413.933	13
414.715	11
415.497	13
416.279	9
417.061	12
417.843	11
418.624	10
419.406	11
420.188	11
420.969	14
421.751	13
422.532	15
423.313	13
424.095	16
424.876	16
425.657	14
426.438	16
427.219	16
428	18
428.78	15
429.561	19
430.342	20
431.122	17
431.903	18
432.683	22
433.464	22
434.244	22
435.024	25
435.804	25
436.584	23
437.364	28
438.144	30
438.924	31
439.704	31
440.483	32
441.263	37
442.042	39
442.822	41
443.601	45
444.38	42
445.16	53
445.939	53
446.718	58
447.497	66
448.276	70
449.054	75
449.833	86
450.612	95
451.391	103
452.169	114
452.948	118
453.726	133
454.504	155
455.282	173
456.061	182
456.839	200
457.617	229
458.395	247
459.172	285
459.95	314
460.728	349
461.506	391
462.283	432
463.061	484
463.838	545
464.615	598
465.393	670
466.17	716
466.947	815
467.724	898
468.501	1001
469.278	1100
470.055	1209
470.831	1343
471.608	1487
472.385	1629
473.161	1786
473.938	1971
474.714	2170
475.49	2368
476.266	2614
477.043	2845
477.819	3128
478.595	3434
479.371	3719
480.146	4075
480.922	4437
481.698	4856
482.473	5256
483.249	5739
484.024	6215
484.8	6776
485.575	7350
486.35	7950
487.126	8601
487.901	9351
488.676	10130
489.451	10914
490.225	11807
491	12744
491.775	13856
492.55	14824
493.324	15963
494.099	17009
494.873	18161
495.647	19322
496.422	20593
497.196	21794
497.97	23217
498.744	24483
499.518	25643
500.292	26803
501.066	27943
501.839	29046
502.613	30021
503.387	30835
504.16	31509
504.934	31993
505.707	32353
506.48	32481
507.253	32513
508.027	32439
508.8	32216
509.573	31829
510.346	31257
511.118	30590
511.891	29832
512.664	28934
513.437	28073
514.209	27098
514.982	26185
515.754	25281
516.526	24309
517.298	23278
518.071	22312
518.843	21495
519.615	20658
520.387	19832
521.159	19033
521.93	18349
522.702	17591
523.474	16919
524.245	16269
525.017	15550
525.788	14869
526.56	14233
527.331	13557
528.102	13014
528.873	12422
529.644	11852
530.415	11324
531.186	10818
531.957	10287
532.728	9791
533.498	9232
534.269	8758
535.039	8316
535.81	7859
536.58	7459
537.351	7018
538.121	6679
538.891	6329
539.661	5935
540.431	5691
541.201	5345
541.971	5093
542.741	4837
543.51	4599
544.28	4371
545.05	4155
545.819	3940
546.588	3753
547.358	3535
548.127	3365
548.896	3211
549.665	3067
550.434	2921
551.203	2758
551.972	2632
552.741	2466
553.51	2355
554.278	2206
555.047	2108
555.815	1975
556.584	1864
557.352	1757
558.121	1653
558.889	1568
559.657	1495
560.425	1383
561.193	1324
561.961	1259
562.729	1196
563.496	1135
564.264	1061
565.032	1006
565.799	956
566.567	904
567.334	856
568.101	813
568.869	761
569.636	712
570.403	672
571.17	637
571.937	598
572.704	564
573.471	541
574.237	494
575.004	473
575.771	449
576.537	419
577.303	408
578.07	376
578.836	356
579.602	332
580.368	317
581.134	305
581.9	281
582.666	272
583.432	259
584.198	249
584.964	231
585.729	224
586.495	206
587.26	194
588.025	188
588.791	180
589.556	165
590.321	156
591.086	148
591.851	144
592.616	134
593.381	127
594.146	123
594.911	119
595.675	116
596.44	106
597.204	105
597.969	95
598.733	94
599.497	89
600.261	83
601.025	79
601.79	75
602.553	75
603.317	73
604.081	67
604.845	67
605.609	64
606.372	58
607.136	57
607.899	54
608.662	55
609.426	52
610.189	53
610.952	45
611.715	48
612.478	44
613.241	41
614.004	45
614.767	40
615.529	39
616.292	34
617.055	34
617.817	33
618.579	32
619.342	29
620.104	29
620.866	32
621.628	29
622.39	26
623.152	26
623.914	29
624.676	24
625.438	25
626.199	23
626.961	20
627.722	24
628.484	20
629.245	19
630.006	22
630.768	18
631.529	22
632.29	19
633.051	16
633.812	16
634.573	17
635.333	17
636.094	16
636.855	16
637.615	14
638.376	15
639.136	15
639.896	11
640.657	14
641.417	15
642.177	10
642.937	14
643.697	12
644.457	13
645.216	12
645.976	12
646.736	9
647.495	11
648.255	12
649.014	10
649.774	11
650.533	9
651.292	12
652.051	10
652.81	9
653.569	9
654.328	8
655.087	8
655.846	9
656.604	9
657.363	7
658.121	8
658.88	7
659.638	7
660.397	6
661.155	7
661.913	7
662.671	9
663.429	4
664.187	8
664.945	6
665.703	8
666.46	8
667.218	6
667.976	7
668.733	6
669.49	4
670.248	4
671.005	4
671.762	7
672.519	5
673.276	6
674.033	6
674.79	5
675.547	5
676.304	5
677.06	6
677.817	8
678.574	6
679.33	3
680.086	6
680.843	8
681.599	6
682.355	6
683.111	6
683.867	4
684.623	6
685.379	6
686.135	8
686.89	7
687.646	5
688.402	6
689.157	5
689.912	6
690.668	5
691.423	6
692.178	5
692.933	3
693.688	6
694.443	4
695.198	5
695.953	4
696.708	5
697.462	4
698.217	2
698.972	6
699.726	4
700.48	3
701.235	4
701.989	3
702.743	4
703.497	4
704.251	7
705.005	4
705.759	4
706.513	5
707.266	3
708.02	5
708.774	7
709.527	4
710.28	5
711.034	6
711.787	8
712.54	4
713.293	4
714.046	4
714.799	4
715.552	5
716.305	5
717.058	4
717.81	3
718.563	4
719.315	5
720.068	3
720.82	6
721.573	5
722.325	2
723.077	5
723.829	5
724.581	5
725.333	4
726.085	4
726.836	6
727.588	5
728.34	6
729.091	4
729.843	7
730.594	5
731.346	7
732.097	6
732.848	4
733.599	6
734.35	5
735.101	7
735.852	4
736.603	4
737.354	5
738.104	4
738.855	4
739.605	3
740.356	6
741.106	7
741.856	6
742.607	6
743.357	5
744.107	5
744.857	8
745.607	6
746.357	6
747.106	6
747.856	5
748.606	7
749.355	6
750.105	6
750.854	7
751.603	8
752.353	5
753.102	8
753.851	6
754.6	3
755.349	8
756.098	8
756.847	7
757.595	8
758.344	6
759.093	8
759.841	5
760.589	5
761.338	7
762.086	10
762.834	8
763.582	10
764.331	9
765.079	7
765.826	9
766.574	8
767.322	8
768.07	10
768.817	5
769.565	8
770.312	7
771.06	10
771.807	10
772.554	9
773.302	11
774.049	10
774.796	9
775.543	10
776.29	11
777.036	8
777.783	9
778.53	10
779.276	11
780.023	9
780.769	10
781.516	11
782.262	9
783.008	9
783.754	13
784.5	8
785.246	10
785.992	9
786.738	9
787.484	9
788.23	10
788.975	12
789.721	9
790.466	11
791.212	8
791.957	7
792.702	11
793.447	10
794.193	8
794.938	11
795.683	9
796.427	11
797.172	12
797.917	9
798.662	9
799.406	7
800.151	9
800.895	9
801.64	11
802.384	8
803.128	6
803.872	9
804.616	9
805.36	9
806.104	7
806.848	8
807.592	8
808.336	7
809.079	8
809.823	8
810.566	8
811.31	3
812.053	7
812.796	6
813.539	8
814.283	6
815.026	5
815.769	8
816.511	6
817.254	6
817.997	6
818.74	6
819.482	6
820.225	6
820.967	9
821.71	4
822.452	4
823.194	8
823.936	3
824.678	6
825.42	6
826.162	2
826.904	4
827.646	4
828.388	4
829.129	4
829.871	6
830.612	5
831.354	5
832.095	2
832.836	1
833.577	5
834.319	3
835.06	4
835.801	5
836.542	4
837.282	5
838.023	4
838.764	5
839.504	2
840.245	4
840.985	3
841.726	3
842.466	1
843.206	3
843.946	3
844.687	4
845.427	3
846.166	5
846.906	3
847.646	2
848.386	3
849.125	3
849.865	6
850.605	3
851.344	2
852.083	3
852.823	3
853.562	3
854.301	3
855.04	5
855.779	2
856.518	5
857.257	1
857.995	4
858.734	0
859.473	2
860.211	2
860.95	1
861.688	3
862.426	1
863.165	-1
863.903	3
864.641	2
865.379	2
866.117	2
866.855	1
867.593	3
868.33	2
869.068	3
869.806	0
870.543	1
871.28	2
872.018	-1
872.755	3
873.492	0
874.229	0
874.967	1
875.703	3
876.44	3
877.177	3
877.914	1
878.651	2
879.387	2
880.124	0
880.86	2
881.597	3
882.333	1
883.069	2
883.806	0
884.542	1
885.278	1
886.014	0
886.749	3
887.485	-2
888.221	1
888.957	0
889.692	1
890.428	1
891.163	0
891.899	2
892.634	0
893.369	2
894.104	0
894.839	2
895.574	-1
896.309	-2
897.044	1
897.779	-1
898.514	0
899.248	3
899.983	-1
900.717	1
901.452	-2
902.186	0
902.92	1
903.654	-1
904.389	1
905.123	0
905.857	1
906.59	0
907.324	1
908.058	1
908.792	0
909.525	0
910.259	0
910.992	1
911.726	0
912.459	1
913.192	0
913.925	-1
914.658	1
915.391	0
916.124	-1
916.857	3
917.59	1
918.323	-2
919.055	0
919.788	-1
920.521	-2
921.253	1
921.985	0
922.718	-1
923.45	1
924.182	0
924.914	-2
925.646	0
926.378	1
927.11	0
927.841	0
928.573	3
929.305	1
930.036	0
930.768	1
931.499	2
932.23	1
932.962	-2
933.693	0
934.424	2
935.155	2
935.886	2
936.617	-1
937.348	-1
938.078	1
938.809	0
939.54	1
940.27	0
941.001	1
941.731	0
942.461	1
943.191	1
943.922	-1
944.652	0
945.382	-1
946.112	0
946.841	-1
947.571	-1
948.301	-1
949.031	-2
949.76	0
950.49	0
951.219	-1
951.948	-2
952.678	-2
953.407	0
954.136	-1
954.865	0
955.594	0
956.323	-1
957.052	0
957.78	0
958.509	-1
959.238	0
959.966	0
960.695	1
961.423	-2
962.151	0
962.88	-1
963.608	0
964.336	-1
965.064	1
965.792	-2
966.52	1
967.247	1
967.975	-3
968.703	0
969.43	0
970.158	0
970.885	1
971.613	-2
972.34	-1
973.067	0
973.794	0
974.521	1
975.248	0
975.975	0
976.702	1
977.429	3
978.156	-1
978.882	-1
979.609	0
980.335	-3
981.062	-1
981.788	0
982.514	-1
983.24	0
983.967	-2
984.693	2
985.419	0
986.144	-1
986.87	0
987.596	0
988.322	1
989.047	-3
989.773	2
990.498	-2
991.224	0
991.949	0
992.674	0
993.399	1
994.124	0
994.849	-2
995.574	0
996.299	0
997.024	1
997.749	-1
998.473	0
999.198	-1
999.922	-1
1000.647	0
1001.371	2
1002.095	-1
1002.82	-1
1003.544	1
1004.268	4
1004.992	-1
1005.716	2
1006.439	1
1007.163	4
1007.887	3
1008.611	0
1009.334	1
1010.058	0
1010.781	-1
1011.504	2
1012.228	-2
1012.951	0
1013.674	-1
1014.397	1
1015.12	-1
