节点500_425_QEPB04081__332__15-53-49-816.txt的数据

Date: Wed Nov 12 15:53:49 CST 2025
User: PC
Spectrometer: QEPB0408
触发模式: 0
积分时间 (秒): 1.000000E-2
Scans to average: 1
启用暗噪声校正: true
启用非线性校正: false
滑动平均宽度: 0
X轴模式: Wavelengths
Number of Pixels in Spectrum: 1044
>>>>>Begin Spectral Data<<<<<
220.843	4.88
221.644	1.88
222.444	2.88
223.244	4.88
224.045	2.88
224.845	4.88
225.645	3.88
226.445	3.88
227.245	5.88
228.045	3.88
228.845	3.88
229.645	4.88
230.444	3.88
231.244	5.88
232.043	6.88
232.843	6.88
233.642	5.88
234.442	4.88
235.241	5.88
236.04	5.88
236.839	7.88
237.638	5.88
238.437	5.88
239.236	7.88
240.035	4.88
240.833	6.88
241.632	7.88
242.43	6.88
243.229	6.88
244.027	8.88
244.826	8.88
245.624	7.88
246.422	8.88
247.22	7.88
248.018	8.88
248.816	10.88
249.614	9.88
250.412	10.88
251.21	7.88
252.007	9.88
252.805	8.88
253.602	8.88
254.4	10.88
255.197	10.88
255.994	12.88
256.791	14.88
257.589	11.88
258.386	14.88
259.183	14.88
259.979	14.88
260.776	14.88
261.573	15.88
262.37	14.88
263.166	14.88
263.963	15.88
264.759	14.88
265.556	17.88
266.352	16.88
267.148	20.88
267.944	18.88
268.74	18.88
269.536	19.88
270.332	21.88
271.128	20.88
271.924	18.88
272.719	24.88
273.515	23.88
274.311	20.88
275.106	26.88
275.901	24.88
276.697	23.88
277.492	22.88
278.287	25.88
279.082	24.88
279.877	23.88
280.672	26.88
281.467	23.88
282.262	24.88
283.056	24.88
283.851	23.88
284.646	22.88
285.44	24.88
286.234	25.88
287.029	25.88
287.823	26.88
288.617	25.88
289.411	24.88
290.205	22.88
290.999	22.88
291.793	24.88
292.587	20.88
293.381	23.88
294.174	23.88
294.968	19.88
295.761	24.88
296.555	21.88
297.348	18.88
298.141	20.88
298.935	21.88
299.728	18.88
300.521	18.88
301.314	18.88
302.107	20.88
302.899	17.88
303.692	15.88
304.485	14.88
305.277	18.88
306.07	16.88
306.862	17.88
307.655	16.88
308.447	14.88
309.239	16.88
310.031	14.88
310.823	16.88
311.615	11.88
312.407	13.88
313.199	15.88
313.991	14.88
314.783	13.88
315.574	14.88
316.366	14.88
317.157	11.88
317.949	11.88
318.74	11.88
319.531	11.88
320.322	10.88
321.113	11.88
321.904	9.88
322.695	10.88
323.486	11.88
324.277	10.88
325.068	8.88
325.858	7.88
326.649	10.88
327.439	8.88
328.23	12.88
329.02	6.88
329.81	10.88
330.6	10.88
331.391	9.88
332.181	10.88
332.971	10.88
333.76	8.88
334.55	6.88
335.34	8.88
336.13	6.88
336.919	8.88
337.709	9.88
338.498	8.88
339.287	9.88
340.077	8.88
340.866	6.88
341.655	8.88
342.444	5.88
343.233	6.88
344.022	8.88
344.811	8.88
345.6	9.88
346.388	7.88
347.177	7.88
347.965	8.88
348.754	10.88
349.542	7.88
350.33	6.88
351.119	6.88
351.907	6.88
352.695	8.88
353.483	8.88
354.271	7.88
355.059	5.88
355.846	8.88
356.634	7.88
357.422	6.88
358.209	8.88
358.997	5.88
359.784	7.88
360.571	9.88
361.359	7.88
362.146	10.88
362.933	6.88
363.72	6.88
364.507	7.88
365.294	7.88
366.081	5.88
366.867	8.88
367.654	6.88
368.44	6.88
369.227	6.88
370.013	8.88
370.8	4.88
371.586	7.88
372.372	6.88
373.158	6.88
373.944	6.88
374.73	8.88
375.516	7.88
376.302	8.88
377.088	5.88
377.873	5.88
378.659	5.88
379.445	6.88
380.23	6.88
381.015	7.88
381.801	6.88
382.586	6.88
383.371	7.88
384.156	5.88
384.941	7.88
385.726	7.88
386.511	8.88
387.296	5.88
388.08	8.88
388.865	9.88
389.649	5.88
390.434	9.88
391.218	8.88
392.003	9.88
392.787	7.88
393.571	8.88
394.355	7.88
395.139	9.88
395.923	10.88
396.707	7.88
397.491	8.88
398.274	8.88
399.058	8.88
399.842	10.88
400.625	10.88
401.408	10.88
402.192	7.88
402.975	9.88
403.758	9.88
404.541	10.88
405.324	8.88
406.107	9.88
406.89	11.88
407.673	13.88
408.456	10.88
409.238	12.88
410.021	10.88
410.803	12.88
411.586	13.88
412.368	11.88
413.151	12.88
413.933	11.88
414.715	10.88
415.497	14.88
416.279	14.88
417.061	12.88
417.843	13.88
418.624	14.88
419.406	11.88
420.188	17.88
420.969	13.88
421.751	14.88
422.532	13.88
423.313	16.88
424.095	15.88
424.876	16.88
425.657	18.88
426.438	17.88
427.219	14.88
428	17.88
428.78	16.88
429.561	18.88
430.342	18.88
431.122	20.88
431.903	19.88
432.683	21.88
433.464	22.88
434.244	22.88
435.024	22.88
435.804	26.88
436.584	26.88
437.364	28.88
438.144	25.88
438.924	33.88
439.704	31.88
440.483	32.88
441.263	34.88
442.042	37.88
442.822	39.88
443.601	46.88
444.38	48.88
445.16	46.88
445.939	50.88
446.718	56.88
447.497	58.88
448.276	65.88
449.054	73.88
449.833	80.88
450.612	83.88
451.391	95.88
452.169	102.88
452.948	115.88
453.726	127.88
454.504	136.88
455.282	154.88
456.061	172.88
456.839	186.88
457.617	209.88
458.395	235.88
459.172	258.88
459.95	294.88
460.728	327.88
461.506	356.88
462.283	404.88
463.061	451.88
463.838	504.88
464.615	568.88
465.393	619.88
466.17	696.88
466.947	778.88
467.724	855.88
468.501	954.88
469.278	1060.88
470.055	1178.88
470.831	1299.88
471.608	1434.88
472.385	1601.88
473.161	1766.88
473.938	1942.88
474.714	2148.88
475.49	2382.88
476.266	2610.88
477.043	2867.88
477.819	3162.88
478.595	3478.88
479.371	3800.88
480.146	4208.88
480.922	4587.88
481.698	5069.88
482.473	5535.88
483.249	6056.88
484.024	6630.88
484.8	7284.88
485.575	7888.88
486.35	8610.88
487.126	9397.88
487.901	10204.88
488.676	11164.88
489.451	12070.88
490.225	13102.88
491	14219.88
491.775	15415.88
492.55	16603.88
493.324	17866.88
494.099	19123.88
494.873	20463.88
495.647	21890.88
496.422	23226.88
497.196	24633.88
497.97	26171.88
498.744	27548.88
499.518	28862.88
500.292	30173.88
501.066	31228.88
501.839	32235.88
502.613	33334.88
503.387	33942.88
504.16	34513.88
504.934	34828.88
505.707	34988.88
506.48	34945.88
507.253	34664.88
508.027	34258.88
508.8	33780.88
509.573	33075.88
510.346	32286.88
511.118	31382.88
511.891	30507.88
512.664	29396.88
513.437	28238.88
514.209	27091.88
514.982	26119.88
515.754	25141.88
516.526	23961.88
517.298	22957.88
518.071	22037.88
518.843	21153.88
519.615	20282.88
520.387	19467.88
521.159	18745.88
521.93	17986.88
522.702	17364.88
523.474	16574.88
524.245	15940.88
525.017	15235.88
525.788	14546.88
526.56	13911.88
527.331	13245.88
528.102	12650.88
528.873	12041.88
529.644	11521.88
530.415	10936.88
531.186	10399.88
531.957	9847.88
532.728	9362.88
533.498	8864.88
534.269	8389.88
535.039	7909.88
535.81	7497.88
536.58	7092.88
537.351	6673.88
538.121	6298.88
538.891	5976.88
539.661	5668.88
540.431	5372.88
541.201	5051.88
541.971	4815.88
542.741	4570.88
543.51	4322.88
544.28	4129.88
545.05	3921.88
545.819	3728.88
546.588	3560.88
547.358	3368.88
548.127	3161.88
548.896	3024.88
549.665	2874.88
550.434	2726.88
551.203	2580.88
551.972	2457.88
552.741	2336.88
553.51	2205.88
554.278	2077.88
555.047	1948.88
555.815	1842.88
556.584	1746.88
557.352	1656.88
558.121	1550.88
558.889	1466.88
559.657	1390.88
560.425	1312.88
561.193	1225.88
561.961	1173.88
562.729	1110.88
563.496	1043.88
564.264	996.88
565.032	931.88
565.799	885.88
566.567	830.88
567.334	786.88
568.101	748.88
568.869	709.88
569.636	664.88
570.403	625.88
571.17	591.88
571.937	554.88
572.704	533.88
573.471	503.88
574.237	469.88
575.004	441.88
575.771	411.88
576.537	391.88
577.303	367.88
578.07	345.88
578.836	330.88
579.602	305.88
580.368	294.88
581.134	280.88
581.9	268.88
582.666	251.88
583.432	240.88
584.198	224.88
584.964	216.88
585.729	199.88
586.495	193.88
587.26	183.88
588.025	177.88
588.791	166.88
589.556	156.88
590.321	148.88
591.086	142.88
591.851	132.88
592.616	124.88
593.381	122.88
594.146	116.88
594.911	109.88
595.675	104.88
596.44	98.88
597.204	96.88
597.969	90.88
598.733	88.88
599.497	82.88
600.261	76.88
601.025	79.88
601.79	75.88
602.553	72.88
603.317	66.88
604.081	63.88
604.845	65.88
605.609	57.88
606.372	55.88
607.136	56.88
607.899	52.88
608.662	49.88
609.426	49.88
610.189	48.88
610.952	46.88
611.715	43.88
612.478	40.88
613.241	41.88
614.004	38.88
614.767	37.88
615.529	38.88
616.292	36.88
617.055	31.88
617.817	33.88
618.579	32.88
619.342	28.88
620.104	30.88
620.866	29.88
621.628	28.88
622.39	27.88
623.152	25.88
623.914	24.88
624.676	25.88
625.438	25.88
626.199	19.88
626.961	20.88
627.722	23.88
628.484	21.88
629.245	20.88
630.006	21.88
630.768	15.88
631.529	17.88
632.29	18.88
633.051	17.88
633.812	16.88
634.573	14.88
635.333	15.88
636.094	16.88
636.855	13.88
637.615	13.88
638.376	14.88
639.136	16.88
639.896	11.88
640.657	13.88
641.417	14.88
642.177	12.88
642.937	12.88
643.697	7.88
644.457	12.88
645.216	10.88
645.976	12.88
646.736	12.88
647.495	10.88
648.255	12.88
649.014	12.88
649.774	10.88
650.533	9.88
651.292	9.88
652.051	9.88
652.81	8.88
653.569	9.88
654.328	9.88
655.087	7.88
655.846	11.88
656.604	8.88
657.363	9.88
658.121	7.88
658.88	10.88
659.638	8.88
660.397	6.88
661.155	8.88
661.913	9.88
662.671	9.88
663.429	7.88
664.187	6.88
664.945	6.88
665.703	6.88
666.46	5.88
667.218	6.88
667.976	6.88
668.733	6.88
669.49	5.88
670.248	6.88
671.005	7.88
671.762	8.88
672.519	6.88
673.276	6.88
674.033	6.88
674.79	8.88
675.547	7.88
676.304	7.88
677.06	5.88
677.817	7.88
678.574	6.88
679.33	4.88
680.086	5.88
680.843	7.88
681.599	6.88
682.355	5.88
683.111	6.88
683.867	7.88
684.623	7.88
685.379	7.88
686.135	2.88
686.89	3.88
687.646	4.88
688.402	6.88
689.157	5.88
689.912	4.88
690.668	6.88
691.423	6.88
692.178	3.88
692.933	3.88
693.688	7.88
694.443	3.88
695.198	6.88
695.953	5.88
696.708	4.88
697.462	7.88
698.217	5.88
698.972	4.88
699.726	5.88
700.48	4.88
701.235	5.88
701.989	4.88
702.743	5.88
703.497	3.88
704.251	5.88
705.005	6.88
705.759	4.88
706.513	4.88
707.266	2.88
708.02	5.88
708.774	3.88
709.527	7.88
710.28	4.88
711.034	4.88
711.787	3.88
712.54	4.88
713.293	4.88
714.046	5.88
714.799	6.88
715.552	6.88
716.305	5.88
717.058	4.88
717.81	3.88
718.563	4.88
719.315	5.88
720.068	4.88
720.82	6.88
721.573	6.88
722.325	4.88
723.077	8.88
723.829	7.88
724.581	5.88
725.333	8.88
726.085	4.88
726.836	6.88
727.588	6.88
728.34	4.88
729.091	4.88
729.843	6.88
730.594	5.88
731.346	5.88
732.097	5.88
732.848	6.88
733.599	7.88
734.35	6.88
735.101	6.88
735.852	5.88
736.603	7.88
737.354	5.88
738.104	5.88
738.855	6.88
739.605	6.88
740.356	9.88
741.106	5.88
741.856	7.88
742.607	5.88
743.357	7.88
744.107	8.88
744.857	6.88
745.607	8.88
746.357	7.88
747.106	8.88
747.856	7.88
748.606	9.88
749.355	6.88
750.105	8.88
750.854	5.88
751.603	6.88
752.353	7.88
753.102	8.88
753.851	7.88
754.6	9.88
755.349	6.88
756.098	8.88
756.847	7.88
757.595	8.88
758.344	7.88
759.093	7.88
759.841	8.88
760.589	8.88
761.338	9.88
762.086	9.88
762.834	8.88
763.582	8.88
764.331	7.88
765.079	10.88
765.826	9.88
766.574	10.88
767.322	9.88
768.07	10.88
768.817	8.88
769.565	12.88
770.312	8.88
771.06	9.88
771.807	8.88
772.554	8.88
773.302	13.88
774.049	9.88
774.796	12.88
775.543	8.88
776.29	10.88
777.036	12.88
777.783	11.88
778.53	12.88
779.276	11.88
780.023	12.88
780.769	12.88
781.516	12.88
782.262	10.88
783.008	12.88
783.754	11.88
784.5	10.88
785.246	9.88
785.992	13.88
786.738	10.88
787.484	11.88
788.23	11.88
788.975	11.88
789.721	9.88
790.466	11.88
791.212	11.88
791.957	12.88
792.702	9.88
793.447	11.88
794.193	11.88
794.938	11.88
795.683	11.88
796.427	9.88
797.172	8.88
797.917	11.88
798.662	9.88
799.406	10.88
800.151	8.88
800.895	10.88
801.64	8.88
802.384	10.88
803.128	8.88
803.872	9.88
804.616	8.88
805.36	7.88
806.104	8.88
806.848	7.88
807.592	8.88
808.336	8.88
809.079	7.88
809.823	6.88
810.566	6.88
811.31	7.88
812.053	6.88
812.796	7.88
813.539	7.88
814.283	6.88
815.026	6.88
815.769	5.88
816.511	7.88
817.254	7.88
817.997	2.88
818.74	8.88
819.482	5.88
820.225	4.88
820.967	4.88
821.71	5.88
822.452	6.88
823.194	3.88
823.936	4.88
824.678	7.88
825.42	4.88
826.162	5.88
826.904	5.88
827.646	7.88
828.388	7.88
829.129	6.88
829.871	5.88
830.612	5.88
831.354	5.88
832.095	2.88
832.836	5.88
833.577	7.88
834.319	4.88
835.06	7.88
835.801	4.88
836.542	7.88
837.282	6.88
838.023	3.88
838.764	5.88
839.504	4.88
840.245	5.88
840.985	5.88
841.726	4.88
842.466	3.88
843.206	3.88
843.946	4.88
844.687	4.88
845.427	4.88
846.166	4.88
846.906	1.88
847.646	4.88
848.386	5.88
849.125	2.88
849.865	4.88
850.605	6.88
851.344	5.88
852.083	5.88
852.823	4.88
853.562	1.88
854.301	4.88
855.04	2.88
855.779	3.88
856.518	1.88
857.257	5.88
857.995	3.88
858.734	2.88
859.473	4.88
860.211	2.88
860.95	1.88
861.688	3.88
862.426	0.88
863.165	1.88
863.903	3.88
864.641	0.88
865.379	2.88
866.117	1.88
866.855	4.88
867.593	2.88
868.33	4.88
869.068	-0.12
869.806	2.88
870.543	0.88
871.28	3.88
872.018	2.88
872.755	2.88
873.492	1.88
874.229	1.88
874.967	1.88
875.703	0.88
876.44	-1.12
877.177	3.88
877.914	2.88
878.651	2.88
879.387	-0.12
880.124	0.88
880.86	2.88
881.597	1.88
882.333	0.88
883.069	3.88
883.806	1.88
884.542	3.88
885.278	2.88
886.014	3.88
886.749	2.88
887.485	2.88
888.221	1.88
888.957	1.88
889.692	0.88
890.428	1.88
891.163	0.88
891.899	1.88
892.634	1.88
893.369	0.88
894.104	-0.12
894.839	1.88
895.574	1.88
896.309	0.88
897.044	1.88
897.779	-0.12
898.514	0.88
899.248	2.88
899.983	1.88
900.717	1.88
901.452	1.88
902.186	1.88
902.92	-0.12
903.654	2.88
904.389	-1.12
905.123	0.88
905.857	1.88
906.59	0.88
907.324	0.88
908.058	-1.12
908.792	0.88
909.525	-0.12
910.259	0.88
910.992	2.88
911.726	-1.12
912.459	3.88
913.192	-1.12
913.925	1.88
914.658	0.88
915.391	-0.12
916.124	-0.12
916.857	2.88
917.59	0.88
918.323	-1.12
919.055	1.88
919.788	1.88
920.521	-0.12
921.253	-0.12
921.985	-0.12
922.718	0.88
923.45	1.88
924.182	-0.12
924.914	1.88
925.646	1.88
926.378	1.88
927.11	1.88
927.841	-0.12
928.573	1.88
929.305	-1.12
930.036	1.88
930.768	0.88
931.499	1.88
932.23	-0.12
932.962	-2.12
933.693	1.88
934.424	-0.12
935.155	1.88
935.886	1.88
936.617	-1.12
937.348	0.88
938.078	2.88
938.809	-1.12
939.54	-0.12
940.27	1.88
941.001	-0.12
941.731	1.88
942.461	2.88
943.191	0.88
943.922	2.88
944.652	2.88
945.382	-0.12
946.112	1.88
946.841	0.88
947.571	0.88
948.301	1.88
949.031	1.88
949.76	1.88
950.49	-0.12
951.219	1.88
951.948	-1.12
952.678	1.88
953.407	1.88
954.136	0.88
954.865	2.88
955.594	1.88
956.323	2.88
957.052	-2.12
957.78	-0.12
958.509	0.88
959.238	-1.12
959.966	0.88
960.695	-0.12
961.423	1.88
962.151	1.88
962.88	0.88
963.608	-0.12
964.336	-0.12
965.064	1.88
965.792	-1.12
966.52	2.88
967.247	1.88
967.975	0.88
968.703	-1.12
969.43	1.88
970.158	1.88
970.885	0.88
971.613	2.88
972.34	1.88
973.067	0.88
973.794	1.88
974.521	-0.12
975.248	1.88
975.975	-0.12
976.702	-0.12
977.429	1.88
978.156	-0.12
978.882	0.88
979.609	2.88
980.335	-0.12
981.062	-0.12
981.788	-0.12
982.514	0.88
983.24	0.88
983.967	0.88
984.693	0.88
985.419	1.88
986.144	1.88
986.87	-1.12
987.596	-0.12
988.322	1.88
989.047	1.88
989.773	-1.12
990.498	2.88
991.224	1.88
991.949	-1.12
992.674	0.88
993.399	1.88
994.124	0.88
994.849	0.88
995.574	-0.12
996.299	0.88
997.024	0.88
997.749	1.88
998.473	0.88
999.198	-0.12
999.922	0.88
1000.647	1.88
1001.371	0.88
1002.095	-0.12
1002.82	1.88
1003.544	-2.12
1004.268	0.88
1004.992	1.88
1005.716	2.88
1006.439	2.88
1007.163	4.88
1007.887	0.88
1008.611	1.88
1009.334	1.88
1010.058	0.88
1010.781	2.88
1011.504	1.88
1012.228	1.88
1012.951	0.88
1013.674	-1.12
1014.397	0.88
1015.12	-1.12
