节点500_425_QEPB04081__334__15-53-51-808.txt的数据

Date: Wed Nov 12 15:53:51 CST 2025
User: PC
Spectrometer: QEPB0408
触发模式: 0
积分时间 (秒): 1.000000E-2
Scans to average: 1
启用暗噪声校正: true
启用非线性校正: false
滑动平均宽度: 0
X轴模式: Wavelengths
Number of Pixels in Spectrum: 1044
>>>>>Begin Spectral Data<<<<<
220.843	2.38
221.644	2.38
222.444	5.38
223.244	3.38
224.045	4.38
224.845	3.38
225.645	4.38
226.445	3.38
227.245	4.38
228.045	2.38
228.845	2.38
229.645	4.38
230.444	2.38
231.244	3.38
232.043	7.38
232.843	5.38
233.642	8.38
234.442	6.38
235.241	6.38
236.04	4.38
236.839	5.38
237.638	5.38
238.437	6.38
239.236	8.38
240.035	6.38
240.833	6.38
241.632	7.38
242.43	6.38
243.229	6.38
244.027	6.38
244.826	7.38
245.624	7.38
246.422	9.38
247.22	8.38
248.018	9.38
248.816	10.38
249.614	9.38
250.412	7.38
251.21	8.38
252.007	8.38
252.805	12.38
253.602	10.38
254.4	8.38
255.197	9.38
255.994	12.38
256.791	13.38
257.589	14.38
258.386	12.38
259.183	11.38
259.979	15.38
260.776	9.38
261.573	15.38
262.37	15.38
263.166	15.38
263.963	19.38
264.759	16.38
265.556	16.38
266.352	16.38
267.148	16.38
267.944	15.38
268.74	18.38
269.536	18.38
270.332	21.38
271.128	20.38
271.924	22.38
272.719	20.38
273.515	23.38
274.311	19.38
275.106	24.38
275.901	24.38
276.697	24.38
277.492	23.38
278.287	25.38
279.082	25.38
279.877	24.38
280.672	26.38
281.467	25.38
282.262	24.38
283.056	24.38
283.851	24.38
284.646	24.38
285.44	24.38
286.234	22.38
287.029	22.38
287.823	24.38
288.617	24.38
289.411	24.38
290.205	25.38
290.999	24.38
291.793	22.38
292.587	23.38
293.381	22.38
294.174	23.38
294.968	18.38
295.761	21.38
296.555	18.38
297.348	20.38
298.141	20.38
298.935	21.38
299.728	17.38
300.521	18.38
301.314	16.38
302.107	18.38
302.899	17.38
303.692	18.38
304.485	18.38
305.277	19.38
306.07	15.38
306.862	15.38
307.655	15.38
308.447	13.38
309.239	15.38
310.031	16.38
310.823	12.38
311.615	12.38
312.407	12.38
313.199	14.38
313.991	11.38
314.783	14.38
315.574	13.38
316.366	10.38
317.157	10.38
317.949	10.38
318.74	11.38
319.531	12.38
320.322	11.38
321.113	10.38
321.904	11.38
322.695	10.38
323.486	10.38
324.277	7.38
325.068	10.38
325.858	10.38
326.649	8.38
327.439	10.38
328.23	9.38
329.02	9.38
329.81	7.38
330.6	8.38
331.391	9.38
332.181	7.38
332.971	9.38
333.76	7.38
334.55	10.38
335.34	6.38
336.13	9.38
336.919	7.38
337.709	10.38
338.498	7.38
339.287	8.38
340.077	11.38
340.866	7.38
341.655	6.38
342.444	9.38
343.233	8.38
344.022	9.38
344.811	9.38
345.6	9.38
346.388	7.38
347.177	9.38
347.965	8.38
348.754	8.38
349.542	8.38
350.33	6.38
351.119	8.38
351.907	9.38
352.695	10.38
353.483	10.38
354.271	9.38
355.059	8.38
355.846	7.38
356.634	8.38
357.422	7.38
358.209	7.38
358.997	7.38
359.784	6.38
360.571	6.38
361.359	6.38
362.146	7.38
362.933	7.38
363.72	9.38
364.507	6.38
365.294	5.38
366.081	5.38
366.867	8.38
367.654	8.38
368.44	7.38
369.227	4.38
370.013	6.38
370.8	6.38
371.586	8.38
372.372	6.38
373.158	6.38
373.944	6.38
374.73	5.38
375.516	7.38
376.302	8.38
377.088	6.38
377.873	6.38
378.659	7.38
379.445	7.38
380.23	7.38
381.015	7.38
381.801	8.38
382.586	7.38
383.371	8.38
384.156	7.38
384.941	6.38
385.726	7.38
386.511	8.38
387.296	5.38
388.08	7.38
388.865	9.38
389.649	9.38
390.434	8.38
391.218	7.38
392.003	7.38
392.787	8.38
393.571	6.38
394.355	8.38
395.139	7.38
395.923	11.38
396.707	7.38
397.491	9.38
398.274	7.38
399.058	12.38
399.842	10.38
400.625	10.38
401.408	9.38
402.192	8.38
402.975	8.38
403.758	9.38
404.541	12.38
405.324	10.38
406.107	10.38
406.89	7.38
407.673	10.38
408.456	9.38
409.238	11.38
410.021	10.38
410.803	11.38
411.586	12.38
412.368	11.38
413.151	11.38
413.933	10.38
414.715	12.38
415.497	12.38
416.279	12.38
417.061	12.38
417.843	14.38
418.624	13.38
419.406	14.38
420.188	13.38
420.969	13.38
421.751	12.38
422.532	14.38
423.313	15.38
424.095	15.38
424.876	15.38
425.657	17.38
426.438	16.38
427.219	15.38
428	19.38
428.78	18.38
429.561	18.38
430.342	18.38
431.122	20.38
431.903	22.38
432.683	20.38
433.464	22.38
434.244	24.38
435.024	26.38
435.804	23.38
436.584	27.38
437.364	28.38
438.144	29.38
438.924	27.38
439.704	32.38
440.483	32.38
441.263	37.38
442.042	40.38
442.822	40.38
443.601	43.38
444.38	46.38
445.16	51.38
445.939	56.38
446.718	55.38
447.497	64.38
448.276	70.38
449.054	72.38
449.833	79.38
450.612	90.38
451.391	96.38
452.169	103.38
452.948	113.38
453.726	123.38
454.504	140.38
455.282	156.38
456.061	171.38
456.839	188.38
457.617	210.38
458.395	236.38
459.172	264.38
459.95	291.38
460.728	320.38
461.506	357.38
462.283	409.38
463.061	454.38
463.838	503.38
464.615	559.38
465.393	621.38
466.17	700.38
466.947	777.38
467.724	869.38
468.501	955.38
469.278	1059.38
470.055	1172.38
470.831	1288.38
471.608	1439.38
472.385	1601.38
473.161	1774.38
473.938	1940.38
474.714	2165.38
475.49	2362.38
476.266	2598.38
477.043	2875.38
477.819	3182.38
478.595	3498.38
479.371	3838.38
480.146	4213.38
480.922	4617.38
481.698	5060.38
482.473	5546.38
483.249	6050.38
484.024	6624.38
484.8	7248.38
485.575	7909.38
486.35	8645.38
487.126	9388.38
487.901	10210.38
488.676	11146.38
489.451	12079.38
490.225	13088.38
491	14209.38
491.775	15414.38
492.55	16584.38
493.324	17908.38
494.099	19181.38
494.873	20439.38
495.647	21816.38
496.422	23208.38
497.196	24662.38
497.97	26145.38
498.744	27549.38
499.518	28894.38
500.292	30080.38
501.066	31174.38
501.839	32291.38
502.613	33261.38
503.387	33920.38
504.16	34535.38
504.934	34840.38
505.707	34873.38
506.48	34841.38
507.253	34652.38
508.027	34351.38
508.8	33843.38
509.573	33181.38
510.346	32352.38
511.118	31400.38
511.891	30503.38
512.664	29358.38
513.437	28248.38
514.209	27132.38
514.982	26193.38
515.754	25062.38
516.526	24061.38
517.298	23058.38
518.071	22034.38
518.843	21080.38
519.615	20273.38
520.387	19529.38
521.159	18778.38
521.93	18043.38
522.702	17278.38
523.474	16679.38
524.245	15959.38
525.017	15214.38
525.788	14552.38
526.56	13910.38
527.331	13284.38
528.102	12649.38
528.873	12090.38
529.644	11477.38
530.415	10961.38
531.186	10427.38
531.957	9916.38
532.728	9374.38
533.498	8862.38
534.269	8357.38
535.039	7886.38
535.81	7513.38
536.58	7087.38
537.351	6652.38
538.121	6341.38
538.891	5997.38
539.661	5689.38
540.431	5376.38
541.201	5086.38
541.971	4796.38
542.741	4582.38
543.51	4337.38
544.28	4121.38
545.05	3916.38
545.819	3730.38
546.588	3547.38
547.358	3363.38
548.127	3184.38
548.896	3037.38
549.665	2881.38
550.434	2744.38
551.203	2577.38
551.972	2454.38
552.741	2318.38
553.51	2200.38
554.278	2079.38
555.047	1954.38
555.815	1843.38
556.584	1754.38
557.352	1644.38
558.121	1548.38
558.889	1471.38
559.657	1380.38
560.425	1321.38
561.193	1232.38
561.961	1177.38
562.729	1098.38
563.496	1045.38
564.264	994.38
565.032	929.38
565.799	877.38
566.567	838.38
567.334	794.38
568.101	743.38
568.869	703.38
569.636	672.38
570.403	635.38
571.17	588.38
571.937	565.38
572.704	529.38
573.471	500.38
574.237	473.38
575.004	430.38
575.771	411.38
576.537	393.38
577.303	376.38
578.07	352.38
578.836	324.38
579.602	312.38
580.368	295.38
581.134	279.38
581.9	265.38
582.666	248.38
583.432	234.38
584.198	224.38
584.964	214.38
585.729	200.38
586.495	196.38
587.26	184.38
588.025	174.38
588.791	162.38
589.556	155.38
590.321	151.38
591.086	142.38
591.851	132.38
592.616	128.38
593.381	122.38
594.146	115.38
594.911	112.38
595.675	106.38
596.44	96.38
597.204	98.38
597.969	92.38
598.733	80.38
599.497	89.38
600.261	82.38
601.025	76.38
601.79	72.38
602.553	69.38
603.317	66.38
604.081	65.38
604.845	64.38
605.609	56.38
606.372	55.38
607.136	50.38
607.899	53.38
608.662	50.38
609.426	51.38
610.189	45.38
610.952	43.38
611.715	43.38
612.478	42.38
613.241	39.38
614.004	38.38
614.767	36.38
615.529	34.38
616.292	34.38
617.055	32.38
617.817	32.38
618.579	29.38
619.342	31.38
620.104	27.38
620.866	29.38
621.628	30.38
622.39	28.38
623.152	25.38
623.914	24.38
624.676	23.38
625.438	21.38
626.199	23.38
626.961	22.38
627.722	22.38
628.484	19.38
629.245	23.38
630.006	18.38
630.768	17.38
631.529	18.38
632.29	17.38
633.051	16.38
633.812	16.38
634.573	15.38
635.333	17.38
636.094	17.38
636.855	14.38
637.615	17.38
638.376	16.38
639.136	14.38
639.896	14.38
640.657	12.38
641.417	13.38
642.177	10.38
642.937	13.38
643.697	15.38
644.457	13.38
645.216	9.38
645.976	12.38
646.736	11.38
647.495	13.38
648.255	11.38
649.014	8.38
649.774	11.38
650.533	11.38
651.292	12.38
652.051	10.38
652.81	13.38
653.569	10.38
654.328	8.38
655.087	8.38
655.846	12.38
656.604	9.38
657.363	8.38
658.121	7.38
658.88	8.38
659.638	7.38
660.397	5.38
661.155	8.38
661.913	7.38
662.671	7.38
663.429	6.38
664.187	5.38
664.945	7.38
665.703	7.38
666.46	7.38
667.218	9.38
667.976	7.38
668.733	6.38
669.49	5.38
670.248	6.38
671.005	6.38
671.762	7.38
672.519	4.38
673.276	7.38
674.033	6.38
674.79	6.38
675.547	6.38
676.304	7.38
677.06	6.38
677.817	7.38
678.574	4.38
679.33	6.38
680.086	4.38
680.843	5.38
681.599	6.38
682.355	5.38
683.111	7.38
683.867	5.38
684.623	4.38
685.379	2.38
686.135	5.38
686.89	5.38
687.646	4.38
688.402	6.38
689.157	7.38
689.912	6.38
690.668	3.38
691.423	5.38
692.178	6.38
692.933	3.38
693.688	7.38
694.443	4.38
695.198	7.38
695.953	5.38
696.708	4.38
697.462	4.38
698.217	5.38
698.972	4.38
699.726	4.38
700.48	4.38
701.235	6.38
701.989	3.38
702.743	4.38
703.497	4.38
704.251	1.38
705.005	4.38
705.759	4.38
706.513	6.38
707.266	4.38
708.02	5.38
708.774	4.38
709.527	5.38
710.28	4.38
711.034	4.38
711.787	4.38
712.54	3.38
713.293	3.38
714.046	3.38
714.799	1.38
715.552	4.38
716.305	7.38
717.058	6.38
717.81	7.38
718.563	7.38
719.315	4.38
720.068	5.38
720.82	7.38
721.573	2.38
722.325	4.38
723.077	4.38
723.829	4.38
724.581	6.38
725.333	4.38
726.085	6.38
726.836	7.38
727.588	4.38
728.34	4.38
729.091	3.38
729.843	6.38
730.594	5.38
731.346	5.38
732.097	6.38
732.848	6.38
733.599	6.38
734.35	6.38
735.101	5.38
735.852	5.38
736.603	5.38
737.354	5.38
738.104	6.38
738.855	6.38
739.605	5.38
740.356	5.38
741.106	7.38
741.856	5.38
742.607	6.38
743.357	5.38
744.107	7.38
744.857	6.38
745.607	7.38
746.357	8.38
747.106	8.38
747.856	6.38
748.606	9.38
749.355	4.38
750.105	8.38
750.854	7.38
751.603	7.38
752.353	6.38
753.102	9.38
753.851	8.38
754.6	7.38
755.349	8.38
756.098	9.38
756.847	6.38
757.595	7.38
758.344	6.38
759.093	8.38
759.841	6.38
760.589	10.38
761.338	8.38
762.086	7.38
762.834	9.38
763.582	9.38
764.331	6.38
765.079	7.38
765.826	11.38
766.574	9.38
767.322	9.38
768.07	10.38
768.817	7.38
769.565	9.38
770.312	8.38
771.06	12.38
771.807	12.38
772.554	9.38
773.302	9.38
774.049	10.38
774.796	10.38
775.543	9.38
776.29	10.38
777.036	11.38
777.783	10.38
778.53	12.38
779.276	13.38
780.023	14.38
780.769	9.38
781.516	8.38
782.262	11.38
783.008	7.38
783.754	14.38
784.5	12.38
785.246	12.38
785.992	10.38
786.738	12.38
787.484	11.38
788.23	9.38
788.975	9.38
789.721	12.38
790.466	10.38
791.212	13.38
791.957	11.38
792.702	12.38
793.447	10.38
794.193	9.38
794.938	9.38
795.683	8.38
796.427	10.38
797.172	10.38
797.917	10.38
798.662	9.38
799.406	10.38
800.151	10.38
800.895	8.38
801.64	8.38
802.384	9.38
803.128	7.38
803.872	8.38
804.616	7.38
805.36	11.38
806.104	7.38
806.848	4.38
807.592	8.38
808.336	8.38
809.079	9.38
809.823	8.38
810.566	9.38
811.31	8.38
812.053	3.38
812.796	6.38
813.539	5.38
814.283	8.38
815.026	7.38
815.769	6.38
816.511	8.38
817.254	6.38
817.997	5.38
818.74	4.38
819.482	9.38
820.225	4.38
820.967	6.38
821.71	4.38
822.452	5.38
823.194	8.38
823.936	5.38
824.678	4.38
825.42	4.38
826.162	4.38
826.904	3.38
827.646	6.38
828.388	4.38
829.129	6.38
829.871	6.38
830.612	5.38
831.354	1.38
832.095	6.38
832.836	4.38
833.577	5.38
834.319	4.38
835.06	4.38
835.801	3.38
836.542	5.38
837.282	7.38
838.023	5.38
838.764	5.38
839.504	4.38
840.245	3.38
840.985	5.38
841.726	2.38
842.466	3.38
843.206	5.38
843.946	5.38
844.687	3.38
845.427	4.38
846.166	6.38
846.906	2.38
847.646	4.38
848.386	2.38
849.125	2.38
849.865	4.38
850.605	3.38
851.344	4.38
852.083	2.38
852.823	3.38
853.562	4.38
854.301	3.38
855.04	3.38
855.779	1.38
856.518	6.38
857.257	3.38
857.995	3.38
858.734	3.38
859.473	0.38
860.211	3.38
860.95	2.38
861.688	2.38
862.426	2.38
863.165	2.38
863.903	2.38
864.641	2.38
865.379	4.38
866.117	2.38
866.855	0.38
867.593	2.38
868.33	1.38
869.068	4.38
869.806	1.38
870.543	0.38
871.28	2.38
872.018	1.38
872.755	2.38
873.492	1.38
874.229	3.38
874.967	2.38
875.703	1.38
876.44	5.38
877.177	1.38
877.914	4.38
878.651	1.38
879.387	0.38
880.124	1.38
880.86	2.38
881.597	2.38
882.333	0.38
883.069	3.38
883.806	2.38
884.542	2.38
885.278	0.38
886.014	1.38
886.749	1.38
887.485	1.38
888.221	2.38
888.957	2.38
889.692	2.38
890.428	1.38
891.163	1.38
891.899	2.38
892.634	1.38
893.369	1.38
894.104	0.38
894.839	0.38
895.574	3.38
896.309	2.38
897.044	2.38
897.779	0.38
898.514	1.38
899.248	2.38
899.983	2.38
900.717	1.38
901.452	1.38
902.186	-1.62
902.92	2.38
903.654	2.38
904.389	0.38
905.123	-1.62
905.857	2.38
906.59	0.38
907.324	1.38
908.058	0.38
908.792	0.38
909.525	1.38
910.259	0.38
910.992	1.38
911.726	2.38
912.459	2.38
913.192	1.38
913.925	0.38
914.658	0.38
915.391	-0.62
916.124	0.38
916.857	1.38
917.59	1.38
918.323	1.38
919.055	0.38
919.788	0.38
920.521	-0.62
921.253	0.38
921.985	2.38
922.718	-1.62
923.45	1.38
924.182	0.38
924.914	-1.62
925.646	0.38
926.378	1.38
927.11	2.38
927.841	1.38
928.573	1.38
929.305	-0.62
930.036	0.38
930.768	2.38
931.499	-1.62
932.23	1.38
932.962	-0.62
933.693	1.38
934.424	-1.62
935.155	0.38
935.886	2.38
936.617	0.38
937.348	1.38
938.078	0.38
938.809	-0.62
939.54	0.38
940.27	0.38
941.001	1.38
941.731	1.38
942.461	0.38
943.191	1.38
943.922	1.38
944.652	0.38
945.382	-0.62
946.112	1.38
946.841	-2.62
947.571	-1.62
948.301	1.38
949.031	-1.62
949.76	0.38
950.49	0.38
951.219	0.38
951.948	2.38
952.678	1.38
953.407	0.38
954.136	-0.62
954.865	0.38
955.594	2.38
956.323	-0.62
957.052	0.38
957.78	-1.62
958.509	1.38
959.238	1.38
959.966	1.38
960.695	1.38
961.423	1.38
962.151	0.38
962.88	-0.62
963.608	1.38
964.336	0.38
965.064	0.38
965.792	-0.62
966.52	1.38
967.247	2.38
967.975	0.38
968.703	0.38
969.43	0.38
970.158	1.38
970.885	1.38
971.613	2.38
972.34	1.38
973.067	0.38
973.794	1.38
974.521	1.38
975.248	0.38
975.975	1.38
976.702	1.38
977.429	1.38
978.156	-0.62
978.882	1.38
979.609	1.38
980.335	-0.62
981.062	1.38
981.788	1.38
982.514	-0.62
983.24	-0.62
983.967	-0.62
984.693	1.38
985.419	-0.62
986.144	0.38
986.87	-1.62
987.596	0.38
988.322	1.38
989.047	0.38
989.773	3.38
990.498	-1.62
991.224	1.38
991.949	-1.62
992.674	-0.62
993.399	3.38
994.124	0.38
994.849	2.38
995.574	0.38
996.299	-1.62
997.024	0.38
997.749	2.38
998.473	2.38
999.198	-1.62
999.922	-0.62
1000.647	-1.62
1001.371	1.38
1002.095	0.38
1002.82	-1.62
1003.544	-3.62
1004.268	3.38
1004.992	3.38
1005.716	1.38
1006.439	4.38
1007.163	3.38
1007.887	2.38
1008.611	0.38
1009.334	-0.62
1010.058	0.38
1010.781	0.38
1011.504	0.38
1012.228	0.38
1012.951	0.38
1013.674	0.38
1014.397	2.38
1015.12	0.38
