节点500_425_QEPB04081__519__15-56-56-566.txt的数据

Date: Wed Nov 12 15:56:56 CST 2025
User: PC
Spectrometer: QEPB0408
触发模式: 0
积分时间 (秒): 1.000000E-2
Scans to average: 1
启用暗噪声校正: true
启用非线性校正: false
滑动平均宽度: 0
X轴模式: Wavelengths
Number of Pixels in Spectrum: 1044
>>>>>Begin Spectral Data<<<<<
220.843	1.88
221.644	2.88
222.444	2.88
223.244	3.88
224.045	3.88
224.845	4.88
225.645	3.88
226.445	4.88
227.245	4.88
228.045	3.88
228.845	4.88
229.645	2.88
230.444	4.88
231.244	3.88
232.043	5.88
232.843	5.88
233.642	5.88
234.442	2.88
235.241	7.88
236.04	5.88
236.839	7.88
237.638	7.88
238.437	6.88
239.236	8.88
240.035	6.88
240.833	8.88
241.632	4.88
242.43	6.88
243.229	4.88
244.027	7.88
244.826	4.88
245.624	8.88
246.422	9.88
247.22	9.88
248.018	8.88
248.816	8.88
249.614	9.88
250.412	10.88
251.21	10.88
252.007	10.88
252.805	10.88
253.602	7.88
254.4	7.88
255.197	7.88
255.994	12.88
256.791	10.88
257.589	11.88
258.386	12.88
259.183	10.88
259.979	12.88
260.776	12.88
261.573	12.88
262.37	14.88
263.166	12.88
263.963	15.88
264.759	14.88
265.556	15.88
266.352	16.88
267.148	14.88
267.944	17.88
268.74	19.88
269.536	18.88
270.332	18.88
271.128	20.88
271.924	20.88
272.719	19.88
273.515	22.88
274.311	20.88
275.106	19.88
275.901	22.88
276.697	21.88
277.492	20.88
278.287	21.88
279.082	24.88
279.877	22.88
280.672	22.88
281.467	22.88
282.262	23.88
283.056	24.88
283.851	23.88
284.646	23.88
285.44	21.88
286.234	21.88
287.029	22.88
287.823	25.88
288.617	23.88
289.411	21.88
290.205	23.88
290.999	24.88
291.793	24.88
292.587	21.88
293.381	20.88
294.174	21.88
294.968	18.88
295.761	21.88
296.555	18.88
297.348	21.88
298.141	18.88
298.935	20.88
299.728	20.88
300.521	18.88
301.314	17.88
302.107	14.88
302.899	17.88
303.692	18.88
304.485	15.88
305.277	16.88
306.07	16.88
306.862	15.88
307.655	15.88
308.447	18.88
309.239	17.88
310.031	14.88
310.823	14.88
311.615	16.88
312.407	13.88
313.199	13.88
313.991	13.88
314.783	13.88
315.574	12.88
316.366	11.88
317.157	12.88
317.949	13.88
318.74	14.88
319.531	10.88
320.322	7.88
321.113	10.88
321.904	8.88
322.695	9.88
323.486	7.88
324.277	9.88
325.068	10.88
325.858	12.88
326.649	10.88
327.439	8.88
328.23	8.88
329.02	10.88
329.81	11.88
330.6	8.88
331.391	9.88
332.181	8.88
332.971	10.88
333.76	9.88
334.55	9.88
335.34	9.88
336.13	8.88
336.919	9.88
337.709	9.88
338.498	5.88
339.287	9.88
340.077	7.88
340.866	8.88
341.655	6.88
342.444	9.88
343.233	9.88
344.022	10.88
344.811	6.88
345.6	7.88
346.388	5.88
347.177	9.88
347.965	7.88
348.754	10.88
349.542	6.88
350.33	7.88
351.119	8.88
351.907	7.88
352.695	7.88
353.483	8.88
354.271	8.88
355.059	8.88
355.846	5.88
356.634	9.88
357.422	6.88
358.209	7.88
358.997	5.88
359.784	5.88
360.571	8.88
361.359	5.88
362.146	7.88
362.933	7.88
363.72	6.88
364.507	6.88
365.294	5.88
366.081	7.88
366.867	5.88
367.654	7.88
368.44	8.88
369.227	4.88
370.013	8.88
370.8	7.88
371.586	7.88
372.372	6.88
373.158	9.88
373.944	5.88
374.73	6.88
375.516	9.88
376.302	6.88
377.088	6.88
377.873	8.88
378.659	4.88
379.445	5.88
380.23	7.88
381.015	6.88
381.801	7.88
382.586	8.88
383.371	5.88
384.156	6.88
384.941	8.88
385.726	8.88
386.511	7.88
387.296	7.88
388.08	5.88
388.865	7.88
389.649	8.88
390.434	8.88
391.218	8.88
392.003	6.88
392.787	9.88
393.571	6.88
394.355	9.88
395.139	7.88
395.923	10.88
396.707	9.88
397.491	6.88
398.274	10.88
399.058	10.88
399.842	10.88
400.625	11.88
401.408	8.88
402.192	12.88
402.975	9.88
403.758	8.88
404.541	9.88
405.324	13.88
406.107	10.88
406.89	8.88
407.673	11.88
408.456	11.88
409.238	11.88
410.021	12.88
410.803	11.88
411.586	8.88
412.368	9.88
413.151	9.88
413.933	13.88
414.715	12.88
415.497	11.88
416.279	10.88
417.061	11.88
417.843	14.88
418.624	13.88
419.406	14.88
420.188	13.88
420.969	13.88
421.751	13.88
422.532	14.88
423.313	15.88
424.095	17.88
424.876	15.88
425.657	14.88
426.438	16.88
427.219	15.88
428	17.88
428.78	18.88
429.561	18.88
430.342	18.88
431.122	18.88
431.903	22.88
432.683	23.88
433.464	24.88
434.244	21.88
435.024	24.88
435.804	26.88
436.584	28.88
437.364	29.88
438.144	29.88
438.924	31.88
439.704	30.88
440.483	36.88
441.263	34.88
442.042	37.88
442.822	40.88
443.601	46.88
444.38	42.88
445.16	50.88
445.939	54.88
446.718	57.88
447.497	66.88
448.276	67.88
449.054	77.88
449.833	85.88
450.612	94.88
451.391	100.88
452.169	113.88
452.948	122.88
453.726	131.88
454.504	151.88
455.282	159.88
456.061	180.88
456.839	202.88
457.617	230.88
458.395	254.88
459.172	278.88
459.95	307.88
460.728	350.88
461.506	380.88
462.283	430.88
463.061	477.88
463.838	537.88
464.615	586.88
465.393	655.88
466.17	719.88
466.947	802.88
467.724	896.88
468.501	986.88
469.278	1100.88
470.055	1216.88
470.831	1346.88
471.608	1495.88
472.385	1611.88
473.161	1778.88
473.938	1966.88
474.714	2166.88
475.49	2374.88
476.266	2613.88
477.043	2855.88
477.819	3118.88
478.595	3429.88
479.371	3752.88
480.146	4071.88
480.922	4486.88
481.698	4881.88
482.473	5312.88
483.249	5755.88
484.024	6286.88
484.8	6855.88
485.575	7448.88
486.35	8083.88
487.126	8777.88
487.901	9520.88
488.676	10295.88
489.451	11132.88
490.225	12077.88
491	13044.88
491.775	14050.88
492.55	15139.88
493.324	16265.88
494.099	17416.88
494.873	18525.88
495.647	19842.88
496.422	21045.88
497.196	22344.88
497.97	23735.88
498.744	24975.88
499.518	26222.88
500.292	27446.88
501.066	28495.88
501.839	29557.88
502.613	30609.88
503.387	31387.88
504.16	32074.88
504.934	32501.88
505.707	32859.88
506.48	32813.88
507.253	32835.88
508.027	32684.88
508.8	32512.88
509.573	31989.88
510.346	31414.88
511.118	30746.88
511.891	29918.88
512.664	29085.88
513.437	28084.88
514.209	27087.88
514.982	26222.88
515.754	25212.88
516.526	24162.88
517.298	23216.88
518.071	22300.88
518.843	21402.88
519.615	20541.88
520.387	19729.88
521.159	18987.88
521.93	18278.88
522.702	17555.88
523.474	16901.88
524.245	16209.88
525.017	15475.88
525.788	14814.88
526.56	14200.88
527.331	13552.88
528.102	12939.88
528.873	12336.88
529.644	11781.88
530.415	11231.88
531.186	10770.88
531.957	10205.88
532.728	9723.88
533.498	9186.88
534.269	8657.88
535.039	8254.88
535.81	7793.88
536.58	7383.88
537.351	6954.88
538.121	6580.88
538.891	6234.88
539.661	5932.88
540.431	5631.88
541.201	5314.88
541.971	5033.88
542.741	4768.88
543.51	4523.88
544.28	4318.88
545.05	4085.88
545.819	3890.88
546.588	3705.88
547.358	3510.88
548.127	3324.88
548.896	3164.88
549.665	3005.88
550.434	2877.88
551.203	2735.88
551.972	2589.88
552.741	2444.88
553.51	2314.88
554.278	2177.88
555.047	2048.88
555.815	1944.88
556.584	1849.88
557.352	1744.88
558.121	1636.88
558.889	1571.88
559.657	1461.88
560.425	1391.88
561.193	1315.88
561.961	1251.88
562.729	1185.88
563.496	1112.88
564.264	1048.88
565.032	994.88
565.799	934.88
566.567	902.88
567.334	844.88
568.101	796.88
568.869	740.88
569.636	711.88
570.403	662.88
571.17	628.88
571.937	597.88
572.704	555.88
573.471	534.88
574.237	501.88
575.004	474.88
575.771	450.88
576.537	417.88
577.303	396.88
578.07	377.88
578.836	341.88
579.602	328.88
580.368	310.88
581.134	297.88
581.9	286.88
582.666	262.88
583.432	247.88
584.198	238.88
584.964	232.88
585.729	218.88
586.495	208.88
587.26	197.88
588.025	185.88
588.791	172.88
589.556	163.88
590.321	156.88
591.086	150.88
591.851	141.88
592.616	134.88
593.381	127.88
594.146	120.88
594.911	117.88
595.675	110.88
596.44	106.88
597.204	104.88
597.969	90.88
598.733	91.88
599.497	86.88
600.261	89.88
601.025	78.88
601.79	74.88
602.553	75.88
603.317	73.88
604.081	63.88
604.845	65.88
605.609	59.88
606.372	61.88
607.136	57.88
607.899	58.88
608.662	53.88
609.426	49.88
610.189	47.88
610.952	47.88
611.715	48.88
612.478	43.88
613.241	41.88
614.004	37.88
614.767	38.88
615.529	38.88
616.292	34.88
617.055	34.88
617.817	35.88
618.579	33.88
619.342	33.88
620.104	30.88
620.866	31.88
621.628	30.88
622.39	28.88
623.152	27.88
623.914	26.88
624.676	27.88
625.438	23.88
626.199	26.88
626.961	22.88
627.722	20.88
628.484	23.88
629.245	22.88
630.006	20.88
630.768	18.88
631.529	19.88
632.29	18.88
633.051	18.88
633.812	18.88
634.573	16.88
635.333	14.88
636.094	19.88
636.855	16.88
637.615	13.88
638.376	14.88
639.136	15.88
639.896	14.88
640.657	13.88
641.417	12.88
642.177	13.88
642.937	12.88
643.697	10.88
644.457	12.88
645.216	9.88
645.976	14.88
646.736	10.88
647.495	12.88
648.255	9.88
649.014	9.88
649.774	10.88
650.533	11.88
651.292	8.88
652.051	9.88
652.81	9.88
653.569	10.88
654.328	8.88
655.087	9.88
655.846	7.88
656.604	9.88
657.363	10.88
658.121	11.88
658.88	5.88
659.638	9.88
660.397	10.88
661.155	9.88
661.913	6.88
662.671	6.88
663.429	7.88
664.187	6.88
664.945	8.88
665.703	5.88
666.46	6.88
667.218	4.88
667.976	6.88
668.733	6.88
669.49	7.88
670.248	5.88
671.005	4.88
671.762	7.88
672.519	3.88
673.276	5.88
674.033	6.88
674.79	6.88
675.547	4.88
676.304	5.88
677.06	6.88
677.817	6.88
678.574	4.88
679.33	5.88
680.086	7.88
680.843	5.88
681.599	3.88
682.355	6.88
683.111	6.88
683.867	4.88
684.623	7.88
685.379	2.88
686.135	4.88
686.89	5.88
687.646	5.88
688.402	5.88
689.157	5.88
689.912	8.88
690.668	5.88
691.423	7.88
692.178	7.88
692.933	5.88
693.688	3.88
694.443	5.88
695.198	2.88
695.953	3.88
696.708	4.88
697.462	5.88
698.217	5.88
698.972	5.88
699.726	5.88
700.48	3.88
701.235	5.88
701.989	2.88
702.743	5.88
703.497	2.88
704.251	4.88
705.005	5.88
705.759	5.88
706.513	6.88
707.266	4.88
708.02	4.88
708.774	3.88
709.527	5.88
710.28	5.88
711.034	3.88
711.787	5.88
712.54	5.88
713.293	4.88
714.046	6.88
714.799	3.88
715.552	4.88
716.305	3.88
717.058	5.88
717.81	5.88
718.563	5.88
719.315	5.88
720.068	5.88
720.82	4.88
721.573	4.88
722.325	4.88
723.077	7.88
723.829	5.88
724.581	4.88
725.333	2.88
726.085	5.88
726.836	5.88
727.588	3.88
728.34	2.88
729.091	5.88
729.843	6.88
730.594	6.88
731.346	6.88
732.097	7.88
732.848	4.88
733.599	8.88
734.35	4.88
735.101	7.88
735.852	4.88
736.603	5.88
737.354	3.88
738.104	4.88
738.855	6.88
739.605	5.88
740.356	7.88
741.106	4.88
741.856	6.88
742.607	7.88
743.357	3.88
744.107	9.88
744.857	5.88
745.607	9.88
746.357	5.88
747.106	5.88
747.856	6.88
748.606	6.88
749.355	7.88
750.105	9.88
750.854	7.88
751.603	7.88
752.353	6.88
753.102	6.88
753.851	3.88
754.6	7.88
755.349	6.88
756.098	5.88
756.847	8.88
757.595	6.88
758.344	7.88
759.093	7.88
759.841	7.88
760.589	6.88
761.338	7.88
762.086	6.88
762.834	8.88
763.582	8.88
764.331	7.88
765.079	7.88
765.826	9.88
766.574	8.88
767.322	9.88
768.07	9.88
768.817	7.88
769.565	9.88
770.312	9.88
771.06	9.88
771.807	8.88
772.554	10.88
773.302	9.88
774.049	7.88
774.796	11.88
775.543	10.88
776.29	11.88
777.036	9.88
777.783	8.88
778.53	10.88
779.276	8.88
780.023	10.88
780.769	10.88
781.516	10.88
782.262	11.88
783.008	9.88
783.754	12.88
784.5	10.88
785.246	10.88
785.992	10.88
786.738	11.88
787.484	9.88
788.23	10.88
788.975	10.88
789.721	8.88
790.466	10.88
791.212	10.88
791.957	8.88
792.702	13.88
793.447	10.88
794.193	8.88
794.938	9.88
795.683	9.88
796.427	9.88
797.172	9.88
797.917	10.88
798.662	8.88
799.406	10.88
800.151	9.88
800.895	8.88
801.64	9.88
802.384	9.88
803.128	9.88
803.872	10.88
804.616	8.88
805.36	8.88
806.104	8.88
806.848	10.88
807.592	7.88
808.336	7.88
809.079	7.88
809.823	6.88
810.566	8.88
811.31	7.88
812.053	7.88
812.796	7.88
813.539	6.88
814.283	6.88
815.026	7.88
815.769	7.88
816.511	6.88
817.254	6.88
817.997	6.88
818.74	6.88
819.482	4.88
820.225	4.88
820.967	6.88
821.71	5.88
822.452	3.88
823.194	3.88
823.936	7.88
824.678	5.88
825.42	6.88
826.162	6.88
826.904	4.88
827.646	4.88
828.388	5.88
829.129	3.88
829.871	6.88
830.612	3.88
831.354	2.88
832.095	4.88
832.836	5.88
833.577	4.88
834.319	5.88
835.06	2.88
835.801	4.88
836.542	5.88
837.282	5.88
838.023	5.88
838.764	4.88
839.504	4.88
840.245	6.88
840.985	4.88
841.726	2.88
842.466	4.88
843.206	4.88
843.946	2.88
844.687	4.88
845.427	2.88
846.166	5.88
846.906	2.88
847.646	4.88
848.386	2.88
849.125	3.88
849.865	3.88
850.605	4.88
851.344	4.88
852.083	2.88
852.823	3.88
853.562	4.88
854.301	2.88
855.04	5.88
855.779	3.88
856.518	4.88
857.257	2.88
857.995	3.88
858.734	2.88
859.473	3.88
860.211	4.88
860.95	1.88
861.688	1.88
862.426	3.88
863.165	1.88
863.903	3.88
864.641	1.88
865.379	3.88
866.117	3.88
866.855	0.88
867.593	3.88
868.33	2.88
869.068	2.88
869.806	0.88
870.543	1.88
871.28	1.88
872.018	-0.12
872.755	1.88
873.492	0.88
874.229	2.88
874.967	1.88
875.703	1.88
876.44	2.88
877.177	-0.12
877.914	1.88
878.651	3.88
879.387	2.88
880.124	3.88
880.86	2.88
881.597	-0.12
882.333	2.88
883.069	2.88
883.806	1.88
884.542	0.88
885.278	2.88
886.014	2.88
886.749	2.88
887.485	0.88
888.221	1.88
888.957	2.88
889.692	0.88
890.428	2.88
891.163	0.88
891.899	2.88
892.634	0.88
893.369	1.88
894.104	0.88
894.839	-1.12
895.574	2.88
896.309	-0.12
897.044	0.88
897.779	0.88
898.514	2.88
899.248	2.88
899.983	0.88
900.717	2.88
901.452	1.88
902.186	1.88
902.92	0.88
903.654	1.88
904.389	2.88
905.123	1.88
905.857	1.88
906.59	1.88
907.324	-0.12
908.058	-0.12
908.792	0.88
909.525	0.88
910.259	-0.12
910.992	0.88
911.726	2.88
912.459	0.88
913.192	-0.12
913.925	-0.12
914.658	2.88
915.391	-1.12
916.124	1.88
916.857	-0.12
917.59	0.88
918.323	3.88
919.055	-0.12
919.788	1.88
920.521	2.88
921.253	-0.12
921.985	0.88
922.718	1.88
923.45	-1.12
924.182	-1.12
924.914	1.88
925.646	0.88
926.378	0.88
927.11	1.88
927.841	0.88
928.573	0.88
929.305	-1.12
930.036	-0.12
930.768	-0.12
931.499	-0.12
932.23	1.88
932.962	0.88
933.693	1.88
934.424	0.88
935.155	0.88
935.886	-1.12
936.617	0.88
937.348	-0.12
938.078	-0.12
938.809	-1.12
939.54	2.88
940.27	-1.12
941.001	-0.12
941.731	0.88
942.461	-1.12
943.191	-0.12
943.922	1.88
944.652	1.88
945.382	-1.12
946.112	1.88
946.841	1.88
947.571	1.88
948.301	1.88
949.031	0.88
949.76	1.88
950.49	1.88
951.219	0.88
951.948	-1.12
952.678	0.88
953.407	-1.12
954.136	0.88
954.865	0.88
955.594	1.88
956.323	-2.12
957.052	1.88
957.78	1.88
958.509	2.88
959.238	0.88
959.966	-0.12
960.695	0.88
961.423	0.88
962.151	-0.12
962.88	0.88
963.608	0.88
964.336	-1.12
965.064	1.88
965.792	0.88
966.52	0.88
967.247	0.88
967.975	1.88
968.703	2.88
969.43	2.88
970.158	0.88
970.885	-1.12
971.613	0.88
972.34	2.88
973.067	-0.12
973.794	1.88
974.521	0.88
975.248	1.88
975.975	0.88
976.702	0.88
977.429	1.88
978.156	0.88
978.882	0.88
979.609	0.88
980.335	0.88
981.062	2.88
981.788	-0.12
982.514	-2.12
983.24	1.88
983.967	-2.12
984.693	1.88
985.419	1.88
986.144	1.88
986.87	0.88
987.596	0.88
988.322	0.88
989.047	0.88
989.773	-0.12
990.498	0.88
991.224	0.88
991.949	1.88
992.674	-0.12
993.399	0.88
994.124	-0.12
994.849	-1.12
995.574	-0.12
996.299	-1.12
997.024	0.88
997.749	-0.12
998.473	2.88
999.198	1.88
999.922	0.88
1000.647	2.88
1001.371	2.88
1002.095	0.88
1002.82	-2.12
1003.544	-1.12
1004.268	1.88
1004.992	1.88
1005.716	1.88
1006.439	2.88
1007.163	2.88
1007.887	1.88
1008.611	0.88
1009.334	0.88
1010.058	0.88
1010.781	1.88
1011.504	-1.12
1012.228	1.88
1012.951	0.88
1013.674	-1.12
1014.397	0.88
1015.12	-1.12
