节点500_425_QEPB04081__193__15-51-31-113.txt的数据

Date: Wed Nov 12 15:51:31 CST 2025
User: PC
Spectrometer: QEPB0408
触发模式: 0
积分时间 (秒): 1.000000E-2
Scans to average: 1
启用暗噪声校正: true
启用非线性校正: false
滑动平均宽度: 0
X轴模式: Wavelengths
Number of Pixels in Spectrum: 1044
>>>>>Begin Spectral Data<<<<<
220.843	2.25
221.644	2.25
222.444	4.25
223.244	4.25
224.045	2.25
224.845	3.25
225.645	5.25
226.445	1.25
227.245	5.25
228.045	4.25
228.845	2.25
229.645	5.25
230.444	4.25
231.244	6.25
232.043	5.25
232.843	7.25
233.642	5.25
234.442	5.25
235.241	6.25
236.04	2.25
236.839	8.25
237.638	7.25
238.437	5.25
239.236	6.25
240.035	6.25
240.833	8.25
241.632	5.25
242.43	7.25
243.229	8.25
244.027	9.25
244.826	10.25
245.624	8.25
246.422	9.25
247.22	8.25
248.018	10.25
248.816	9.25
249.614	10.25
250.412	12.25
251.21	8.25
252.007	8.25
252.805	10.25
253.602	10.25
254.4	12.25
255.197	10.25
255.994	11.25
256.791	10.25
257.589	14.25
258.386	16.25
259.183	14.25
259.979	15.25
260.776	14.25
261.573	16.25
262.37	16.25
263.166	14.25
263.963	18.25
264.759	17.25
265.556	17.25
266.352	17.25
267.148	21.25
267.944	21.25
268.74	18.25
269.536	22.25
270.332	20.25
271.128	23.25
271.924	20.25
272.719	22.25
273.515	23.25
274.311	23.25
275.106	24.25
275.901	23.25
276.697	26.25
277.492	24.25
278.287	24.25
279.082	26.25
279.877	21.25
280.672	26.25
281.467	25.25
282.262	25.25
283.056	29.25
283.851	26.25
284.646	28.25
285.44	26.25
286.234	26.25
287.029	23.25
287.823	24.25
288.617	26.25
289.411	25.25
290.205	25.25
290.999	22.25
291.793	23.25
292.587	23.25
293.381	21.25
294.174	24.25
294.968	22.25
295.761	20.25
296.555	23.25
297.348	21.25
298.141	20.25
298.935	21.25
299.728	21.25
300.521	21.25
301.314	16.25
302.107	17.25
302.899	16.25
303.692	16.25
304.485	14.25
305.277	16.25
306.07	18.25
306.862	17.25
307.655	16.25
308.447	15.25
309.239	16.25
310.031	14.25
310.823	15.25
311.615	15.25
312.407	14.25
313.199	13.25
313.991	13.25
314.783	13.25
315.574	11.25
316.366	11.25
317.157	13.25
317.949	10.25
318.74	12.25
319.531	8.25
320.322	10.25
321.113	9.25
321.904	7.25
322.695	10.25
323.486	10.25
324.277	9.25
325.068	10.25
325.858	9.25
326.649	9.25
327.439	10.25
328.23	8.25
329.02	9.25
329.81	8.25
330.6	7.25
331.391	8.25
332.181	8.25
332.971	8.25
333.76	10.25
334.55	7.25
335.34	8.25
336.13	7.25
336.919	8.25
337.709	10.25
338.498	8.25
339.287	9.25
340.077	9.25
340.866	7.25
341.655	6.25
342.444	9.25
343.233	7.25
344.022	7.25
344.811	8.25
345.6	8.25
346.388	10.25
347.177	10.25
347.965	7.25
348.754	8.25
349.542	7.25
350.33	9.25
351.119	7.25
351.907	6.25
352.695	9.25
353.483	8.25
354.271	9.25
355.059	8.25
355.846	7.25
356.634	9.25
357.422	7.25
358.209	10.25
358.997	6.25
359.784	7.25
360.571	10.25
361.359	8.25
362.146	10.25
362.933	7.25
363.72	10.25
364.507	8.25
365.294	7.25
366.081	10.25
366.867	4.25
367.654	7.25
368.44	7.25
369.227	6.25
370.013	8.25
370.8	10.25
371.586	6.25
372.372	7.25
373.158	7.25
373.944	6.25
374.73	6.25
375.516	8.25
376.302	5.25
377.088	8.25
377.873	5.25
378.659	5.25
379.445	10.25
380.23	8.25
381.015	7.25
381.801	7.25
382.586	7.25
383.371	8.25
384.156	9.25
384.941	7.25
385.726	9.25
386.511	9.25
387.296	9.25
388.08	7.25
388.865	7.25
389.649	6.25
390.434	10.25
391.218	7.25
392.003	8.25
392.787	8.25
393.571	8.25
394.355	9.25
395.139	8.25
395.923	9.25
396.707	10.25
397.491	8.25
398.274	9.25
399.058	7.25
399.842	9.25
400.625	7.25
401.408	9.25
402.192	10.25
402.975	12.25
403.758	10.25
404.541	10.25
405.324	12.25
406.107	11.25
406.89	9.25
407.673	11.25
408.456	11.25
409.238	11.25
410.021	10.25
410.803	13.25
411.586	10.25
412.368	11.25
413.151	10.25
413.933	14.25
414.715	14.25
415.497	13.25
416.279	12.25
417.061	14.25
417.843	12.25
418.624	13.25
419.406	13.25
420.188	14.25
420.969	14.25
421.751	16.25
422.532	17.25
423.313	15.25
424.095	18.25
424.876	14.25
425.657	18.25
426.438	16.25
427.219	20.25
428	17.25
428.78	17.25
429.561	21.25
430.342	21.25
431.122	20.25
431.903	21.25
432.683	23.25
433.464	23.25
434.244	23.25
435.024	25.25
435.804	26.25
436.584	27.25
437.364	26.25
438.144	30.25
438.924	30.25
439.704	32.25
440.483	32.25
441.263	37.25
442.042	35.25
442.822	38.25
443.601	42.25
444.38	51.25
445.16	49.25
445.939	52.25
446.718	56.25
447.497	60.25
448.276	66.25
449.054	71.25
449.833	75.25
450.612	85.25
451.391	90.25
452.169	100.25
452.948	110.25
453.726	122.25
454.504	129.25
455.282	149.25
456.061	163.25
456.839	180.25
457.617	202.25
458.395	225.25
459.172	251.25
459.95	277.25
460.728	310.25
461.506	343.25
462.283	390.25
463.061	439.25
463.838	485.25
464.615	537.25
465.393	610.25
466.17	669.25
466.947	762.25
467.724	840.25
468.501	934.25
469.278	1041.25
470.055	1164.25
470.831	1280.25
471.608	1418.25
472.385	1590.25
473.161	1767.25
473.938	1949.25
474.714	2167.25
475.49	2368.25
476.266	2646.25
477.043	2903.25
477.819	3200.25
478.595	3532.25
479.371	3887.25
480.146	4243.25
480.922	4699.25
481.698	5143.25
482.473	5688.25
483.249	6250.25
484.024	6841.25
484.8	7510.25
485.575	8219.25
486.35	8947.25
487.126	9779.25
487.901	10678.25
488.676	11664.25
489.451	12706.25
490.225	13829.25
491	15019.25
491.775	16248.25
492.55	17645.25
493.324	18926.25
494.099	20388.25
494.873	21744.25
495.647	23199.25
496.422	24625.25
497.196	26172.25
497.97	27705.25
498.744	29177.25
499.518	30537.25
500.292	31714.25
501.066	32861.25
501.839	33981.25
502.613	34859.25
503.387	35506.25
504.16	35992.25
504.934	36202.25
505.707	36138.25
506.48	35983.25
507.253	35623.25
508.027	35148.25
508.8	34545.25
509.573	33629.25
510.346	32809.25
511.118	31731.25
511.891	30715.25
512.664	29581.25
513.437	28299.25
514.209	27150.25
514.982	26069.25
515.754	25027.25
516.526	23958.25
517.298	22900.25
518.071	21980.25
518.843	21020.25
519.615	20187.25
520.387	19369.25
521.159	18660.25
521.93	17895.25
522.702	17219.25
523.474	16455.25
524.245	15921.25
525.017	15107.25
525.788	14430.25
526.56	13747.25
527.331	13158.25
528.102	12522.25
528.873	11946.25
529.644	11326.25
530.415	10821.25
531.186	10265.25
531.957	9745.25
532.728	9178.25
533.498	8656.25
534.269	8230.25
535.039	7774.25
535.81	7350.25
536.58	6934.25
537.351	6515.25
538.121	6130.25
538.891	5849.25
539.661	5521.25
540.431	5273.25
541.201	4959.25
541.971	4711.25
542.741	4492.25
543.51	4232.25
544.28	4036.25
545.05	3848.25
545.819	3656.25
546.588	3467.25
547.358	3280.25
548.127	3084.25
548.896	2950.25
549.665	2805.25
550.434	2664.25
551.203	2528.25
551.972	2384.25
552.741	2249.25
553.51	2138.25
554.278	2017.25
555.047	1899.25
555.815	1791.25
556.584	1686.25
557.352	1586.25
558.121	1496.25
558.889	1422.25
559.657	1352.25
560.425	1267.25
561.193	1186.25
561.961	1138.25
562.729	1081.25
563.496	1015.25
564.264	958.25
565.032	893.25
565.799	856.25
566.567	818.25
567.334	773.25
568.101	726.25
568.869	689.25
569.636	644.25
570.403	600.25
571.17	567.25
571.937	540.25
572.704	516.25
573.471	493.25
574.237	452.25
575.004	432.25
575.771	402.25
576.537	381.25
577.303	358.25
578.07	337.25
578.836	315.25
579.602	299.25
580.368	284.25
581.134	272.25
581.9	254.25
582.666	241.25
583.432	231.25
584.198	218.25
584.964	208.25
585.729	199.25
586.495	187.25
587.26	180.25
588.025	167.25
588.791	162.25
589.556	156.25
590.321	138.25
591.086	138.25
591.851	136.25
592.616	122.25
593.381	116.25
594.146	108.25
594.911	103.25
595.675	98.25
596.44	98.25
597.204	93.25
597.969	86.25
598.733	87.25
599.497	82.25
600.261	80.25
601.025	73.25
601.79	70.25
602.553	68.25
603.317	67.25
604.081	59.25
604.845	59.25
605.609	58.25
606.372	58.25
607.136	57.25
607.899	53.25
608.662	48.25
609.426	48.25
610.189	43.25
610.952	44.25
611.715	41.25
612.478	41.25
613.241	37.25
614.004	37.25
614.767	35.25
615.529	35.25
616.292	33.25
617.055	33.25
617.817	31.25
618.579	31.25
619.342	29.25
620.104	26.25
620.866	27.25
621.628	28.25
622.39	23.25
623.152	24.25
623.914	22.25
624.676	22.25
625.438	23.25
626.199	21.25
626.961	22.25
627.722	21.25
628.484	19.25
629.245	20.25
630.006	19.25
630.768	17.25
631.529	18.25
632.29	21.25
633.051	14.25
633.812	14.25
634.573	15.25
635.333	17.25
636.094	14.25
636.855	16.25
637.615	13.25
638.376	14.25
639.136	16.25
639.896	15.25
640.657	13.25
641.417	13.25
642.177	11.25
642.937	12.25
643.697	11.25
644.457	14.25
645.216	10.25
645.976	10.25
646.736	10.25
647.495	10.25
648.255	10.25
649.014	11.25
649.774	9.25
650.533	9.25
651.292	8.25
652.051	9.25
652.81	8.25
653.569	9.25
654.328	9.25
655.087	9.25
655.846	11.25
656.604	8.25
657.363	9.25
658.121	6.25
658.88	11.25
659.638	9.25
660.397	7.25
661.155	7.25
661.913	6.25
662.671	7.25
663.429	7.25
664.187	7.25
664.945	9.25
665.703	10.25
666.46	11.25
667.218	8.25
667.976	8.25
668.733	6.25
669.49	6.25
670.248	7.25
671.005	6.25
671.762	6.25
672.519	5.25
673.276	5.25
674.033	6.25
674.79	4.25
675.547	6.25
676.304	6.25
677.06	5.25
677.817	6.25
678.574	6.25
679.33	5.25
680.086	5.25
680.843	4.25
681.599	6.25
682.355	5.25
683.111	5.25
683.867	5.25
684.623	6.25
685.379	7.25
686.135	6.25
686.89	6.25
687.646	6.25
688.402	6.25
689.157	5.25
689.912	3.25
690.668	6.25
691.423	6.25
692.178	6.25
692.933	5.25
693.688	6.25
694.443	4.25
695.198	6.25
695.953	6.25
696.708	7.25
697.462	6.25
698.217	4.25
698.972	4.25
699.726	4.25
700.48	6.25
701.235	5.25
701.989	4.25
702.743	7.25
703.497	3.25
704.251	6.25
705.005	3.25
705.759	3.25
706.513	6.25
707.266	5.25
708.02	6.25
708.774	4.25
709.527	6.25
710.28	4.25
711.034	5.25
711.787	4.25
712.54	5.25
713.293	6.25
714.046	3.25
714.799	4.25
715.552	5.25
716.305	6.25
717.058	7.25
717.81	6.25
718.563	5.25
719.315	5.25
720.068	4.25
720.82	4.25
721.573	5.25
722.325	4.25
723.077	5.25
723.829	6.25
724.581	7.25
725.333	9.25
726.085	6.25
726.836	4.25
727.588	5.25
728.34	4.25
729.091	5.25
729.843	4.25
730.594	4.25
731.346	7.25
732.097	6.25
732.848	9.25
733.599	4.25
734.35	6.25
735.101	5.25
735.852	5.25
736.603	5.25
737.354	3.25
738.104	6.25
738.855	7.25
739.605	6.25
740.356	7.25
741.106	6.25
741.856	6.25
742.607	6.25
743.357	7.25
744.107	7.25
744.857	5.25
745.607	8.25
746.357	7.25
747.106	5.25
747.856	4.25
748.606	4.25
749.355	8.25
750.105	9.25
750.854	5.25
751.603	7.25
752.353	7.25
753.102	7.25
753.851	8.25
754.6	9.25
755.349	5.25
756.098	8.25
756.847	8.25
757.595	9.25
758.344	9.25
759.093	9.25
759.841	7.25
760.589	8.25
761.338	10.25
762.086	10.25
762.834	7.25
763.582	10.25
764.331	11.25
765.079	11.25
765.826	9.25
766.574	8.25
767.322	12.25
768.07	10.25
768.817	12.25
769.565	9.25
770.312	10.25
771.06	12.25
771.807	10.25
772.554	11.25
773.302	10.25
774.049	10.25
774.796	10.25
775.543	11.25
776.29	12.25
777.036	12.25
777.783	11.25
778.53	12.25
779.276	10.25
780.023	11.25
780.769	10.25
781.516	12.25
782.262	12.25
783.008	9.25
783.754	13.25
784.5	12.25
785.246	13.25
785.992	12.25
786.738	15.25
787.484	12.25
788.23	11.25
788.975	11.25
789.721	10.25
790.466	12.25
791.212	12.25
791.957	9.25
792.702	11.25
793.447	11.25
794.193	12.25
794.938	9.25
795.683	12.25
796.427	8.25
797.172	12.25
797.917	8.25
798.662	9.25
799.406	10.25
800.151	8.25
800.895	7.25
801.64	8.25
802.384	8.25
803.128	7.25
803.872	8.25
804.616	8.25
805.36	8.25
806.104	11.25
806.848	7.25
807.592	8.25
808.336	9.25
809.079	9.25
809.823	9.25
810.566	9.25
811.31	5.25
812.053	6.25
812.796	6.25
813.539	8.25
814.283	5.25
815.026	6.25
815.769	5.25
816.511	5.25
817.254	4.25
817.997	7.25
818.74	4.25
819.482	8.25
820.225	6.25
820.967	5.25
821.71	5.25
822.452	4.25
823.194	5.25
823.936	6.25
824.678	6.25
825.42	6.25
826.162	7.25
826.904	6.25
827.646	5.25
828.388	6.25
829.129	3.25
829.871	6.25
830.612	4.25
831.354	5.25
832.095	3.25
832.836	5.25
833.577	4.25
834.319	2.25
835.06	5.25
835.801	5.25
836.542	4.25
837.282	4.25
838.023	3.25
838.764	4.25
839.504	4.25
840.245	5.25
840.985	4.25
841.726	4.25
842.466	4.25
843.206	5.25
843.946	2.25
844.687	3.25
845.427	2.25
846.166	6.25
846.906	3.25
847.646	2.25
848.386	2.25
849.125	6.25
849.865	2.25
850.605	1.25
851.344	6.25
852.083	2.25
852.823	6.25
853.562	3.25
854.301	3.25
855.04	2.25
855.779	1.25
856.518	2.25
857.257	1.25
857.995	3.25
858.734	4.25
859.473	5.25
860.211	3.25
860.95	2.25
861.688	3.25
862.426	2.25
863.165	3.25
863.903	4.25
864.641	2.25
865.379	0.25
866.117	1.25
866.855	2.25
867.593	2.25
868.33	2.25
869.068	2.25
869.806	2.25
870.543	2.25
871.28	2.25
872.018	1.25
872.755	2.25
873.492	2.25
874.229	1.25
874.967	1.25
875.703	2.25
876.44	1.25
877.177	2.25
877.914	3.25
878.651	-0.75
879.387	1.25
880.124	2.25
880.86	2.25
881.597	1.25
882.333	2.25
883.069	1.25
883.806	1.25
884.542	-0.75
885.278	0.25
886.014	0.25
886.749	2.25
887.485	4.25
888.221	1.25
888.957	1.25
889.692	-0.75
890.428	1.25
891.163	1.25
891.899	-1.75
892.634	0.25
893.369	0.25
894.104	-0.75
894.839	2.25
895.574	-0.75
896.309	0.25
897.044	1.25
897.779	2.25
898.514	0.25
899.248	0.25
899.983	-1.75
900.717	1.25
901.452	-0.75
902.186	1.25
902.92	-1.75
903.654	1.25
904.389	1.25
905.123	0.25
905.857	1.25
906.59	2.25
907.324	1.25
908.058	0.25
908.792	2.25
909.525	2.25
910.259	-2.75
910.992	1.25
911.726	-1.75
912.459	1.25
913.192	4.25
913.925	-1.75
914.658	1.25
915.391	0.25
916.124	1.25
916.857	0.25
917.59	-0.75
918.323	0.25
919.055	1.25
919.788	-0.75
920.521	0.25
921.253	-0.75
921.985	0.25
922.718	1.25
923.45	2.25
924.182	-0.75
924.914	0.25
925.646	1.25
926.378	1.25
927.11	2.25
927.841	1.25
928.573	0.25
929.305	0.25
930.036	1.25
930.768	0.25
931.499	0.25
932.23	0.25
932.962	-0.75
933.693	0.25
934.424	0.25
935.155	1.25
935.886	1.25
936.617	1.25
937.348	0.25
938.078	-0.75
938.809	0.25
939.54	0.25
940.27	0.25
941.001	-0.75
941.731	1.25
942.461	0.25
943.191	-0.75
943.922	1.25
944.652	0.25
945.382	3.25
946.112	0.25
946.841	-0.75
947.571	0.25
948.301	0.25
949.031	2.25
949.76	2.25
950.49	0.25
951.219	0.25
951.948	0.25
952.678	2.25
953.407	-1.75
954.136	0.25
954.865	0.25
955.594	-1.75
956.323	1.25
957.052	0.25
957.78	0.25
958.509	0.25
959.238	-0.75
959.966	2.25
960.695	-0.75
961.423	1.25
962.151	1.25
962.88	-1.75
963.608	1.25
964.336	-2.75
965.064	0.25
965.792	-0.75
966.52	-1.75
967.247	-0.75
967.975	1.25
968.703	0.25
969.43	-0.75
970.158	2.25
970.885	0.25
971.613	0.25
972.34	1.25
973.067	0.25
973.794	0.25
974.521	-0.75
975.248	0.25
975.975	0.25
976.702	-3.75
977.429	0.25
978.156	1.25
978.882	1.25
979.609	3.25
980.335	-0.75
981.062	0.25
981.788	-1.75
982.514	2.25
983.24	-0.75
983.967	-0.75
984.693	0.25
985.419	0.25
986.144	-1.75
986.87	1.25
987.596	1.25
988.322	1.25
989.047	0.25
989.773	2.25
990.498	0.25
991.224	0.25
991.949	0.25
992.674	0.25
993.399	-0.75
994.124	1.25
994.849	1.25
995.574	-0.75
996.299	-0.75
997.024	0.25
997.749	2.25
998.473	0.25
999.198	-0.75
999.922	-1.75
1000.647	-1.75
1001.371	4.25
1002.095	-0.75
1002.82	-2.75
1003.544	-0.75
1004.268	4.25
1004.992	2.25
1005.716	2.25
1006.439	1.25
1007.163	4.25
1007.887	4.25
1008.611	-1.75
1009.334	0.25
1010.058	-1.75
1010.781	0.25
1011.504	0.25
1012.228	1.25
1012.951	0.25
1013.674	-0.75
1014.397	0.25
1015.12	0.25
