节点500_425_QEPB04081__165__15-51-03-192.txt的数据

Date: Wed Nov 12 15:51:03 CST 2025
User: PC
Spectrometer: QEPB0408
触发模式: 0
积分时间 (秒): 1.000000E-2
Scans to average: 1
启用暗噪声校正: true
启用非线性校正: false
滑动平均宽度: 0
X轴模式: Wavelengths
Number of Pixels in Spectrum: 1044
>>>>>Begin Spectral Data<<<<<
220.843	0.88
221.644	1.88
222.444	3.88
223.244	-0.12
224.045	3.88
224.845	3.88
225.645	2.88
226.445	3.88
227.245	2.88
228.045	2.88
228.845	3.88
229.645	3.88
230.444	4.88
231.244	4.88
232.043	3.88
232.843	4.88
233.642	5.88
234.442	4.88
235.241	6.88
236.04	6.88
236.839	5.88
237.638	6.88
238.437	5.88
239.236	6.88
240.035	8.88
240.833	7.88
241.632	8.88
242.43	7.88
243.229	7.88
244.027	7.88
244.826	9.88
245.624	5.88
246.422	8.88
247.22	6.88
248.018	5.88
248.816	7.88
249.614	7.88
250.412	9.88
251.21	8.88
252.007	10.88
252.805	10.88
253.602	11.88
254.4	9.88
255.197	9.88
255.994	12.88
256.791	12.88
257.589	11.88
258.386	11.88
259.183	15.88
259.979	16.88
260.776	13.88
261.573	14.88
262.37	15.88
263.166	15.88
263.963	14.88
264.759	12.88
265.556	15.88
266.352	19.88
267.148	19.88
267.944	19.88
268.74	19.88
269.536	18.88
270.332	21.88
271.128	19.88
271.924	23.88
272.719	25.88
273.515	24.88
274.311	23.88
275.106	22.88
275.901	24.88
276.697	23.88
277.492	21.88
278.287	25.88
279.082	23.88
279.877	24.88
280.672	22.88
281.467	24.88
282.262	26.88
283.056	26.88
283.851	26.88
284.646	25.88
285.44	28.88
286.234	24.88
287.029	24.88
287.823	24.88
288.617	25.88
289.411	23.88
290.205	21.88
290.999	25.88
291.793	22.88
292.587	23.88
293.381	22.88
294.174	22.88
294.968	22.88
295.761	17.88
296.555	22.88
297.348	18.88
298.141	22.88
298.935	20.88
299.728	16.88
300.521	21.88
301.314	16.88
302.107	17.88
302.899	16.88
303.692	16.88
304.485	16.88
305.277	14.88
306.07	16.88
306.862	14.88
307.655	14.88
308.447	14.88
309.239	15.88
310.031	13.88
310.823	13.88
311.615	13.88
312.407	11.88
313.199	12.88
313.991	12.88
314.783	11.88
315.574	9.88
316.366	11.88
317.157	9.88
317.949	11.88
318.74	10.88
319.531	9.88
320.322	8.88
321.113	10.88
321.904	7.88
322.695	10.88
323.486	9.88
324.277	6.88
325.068	9.88
325.858	10.88
326.649	9.88
327.439	9.88
328.23	9.88
329.02	6.88
329.81	6.88
330.6	7.88
331.391	8.88
332.181	7.88
332.971	7.88
333.76	7.88
334.55	10.88
335.34	8.88
336.13	7.88
336.919	8.88
337.709	7.88
338.498	7.88
339.287	9.88
340.077	6.88
340.866	8.88
341.655	7.88
342.444	6.88
343.233	9.88
344.022	6.88
344.811	7.88
345.6	7.88
346.388	8.88
347.177	7.88
347.965	7.88
348.754	6.88
349.542	8.88
350.33	5.88
351.119	8.88
351.907	4.88
352.695	8.88
353.483	7.88
354.271	2.88
355.059	6.88
355.846	5.88
356.634	8.88
357.422	3.88
358.209	8.88
358.997	7.88
359.784	6.88
360.571	7.88
361.359	6.88
362.146	3.88
362.933	6.88
363.72	6.88
364.507	6.88
365.294	5.88
366.081	6.88
366.867	6.88
367.654	6.88
368.44	5.88
369.227	4.88
370.013	5.88
370.8	7.88
371.586	8.88
372.372	5.88
373.158	3.88
373.944	6.88
374.73	3.88
375.516	8.88
376.302	6.88
377.088	5.88
377.873	6.88
378.659	6.88
379.445	3.88
380.23	7.88
381.015	7.88
381.801	8.88
382.586	4.88
383.371	8.88
384.156	8.88
384.941	6.88
385.726	9.88
386.511	6.88
387.296	6.88
388.08	4.88
388.865	6.88
389.649	7.88
390.434	7.88
391.218	8.88
392.003	7.88
392.787	4.88
393.571	8.88
394.355	8.88
395.139	7.88
395.923	6.88
396.707	7.88
397.491	6.88
398.274	6.88
399.058	11.88
399.842	7.88
400.625	9.88
401.408	11.88
402.192	10.88
402.975	9.88
403.758	10.88
404.541	7.88
405.324	11.88
406.107	11.88
406.89	8.88
407.673	11.88
408.456	8.88
409.238	11.88
410.021	9.88
410.803	10.88
411.586	10.88
412.368	10.88
413.151	11.88
413.933	14.88
414.715	10.88
415.497	10.88
416.279	11.88
417.061	12.88
417.843	10.88
418.624	13.88
419.406	12.88
420.188	16.88
420.969	13.88
421.751	14.88
422.532	15.88
423.313	13.88
424.095	15.88
424.876	15.88
425.657	13.88
426.438	18.88
427.219	16.88
428	15.88
428.78	17.88
429.561	19.88
430.342	19.88
431.122	18.88
431.903	20.88
432.683	24.88
433.464	21.88
434.244	22.88
435.024	23.88
435.804	24.88
436.584	25.88
437.364	29.88
438.144	28.88
438.924	28.88
439.704	34.88
440.483	33.88
441.263	34.88
442.042	38.88
442.822	37.88
443.601	38.88
444.38	43.88
445.16	48.88
445.939	50.88
446.718	55.88
447.497	58.88
448.276	65.88
449.054	64.88
449.833	73.88
450.612	80.88
451.391	89.88
452.169	96.88
452.948	107.88
453.726	116.88
454.504	130.88
455.282	140.88
456.061	157.88
456.839	181.88
457.617	200.88
458.395	226.88
459.172	248.88
459.95	275.88
460.728	310.88
461.506	344.88
462.283	388.88
463.061	432.88
463.838	473.88
464.615	536.88
465.393	602.88
466.17	663.88
466.947	746.88
467.724	820.88
468.501	924.88
469.278	1034.88
470.055	1152.88
470.831	1269.88
471.608	1430.88
472.385	1579.88
473.161	1744.88
473.938	1928.88
474.714	2145.88
475.49	2368.88
476.266	2632.88
477.043	2899.88
477.819	3178.88
478.595	3564.88
479.371	3896.88
480.146	4289.88
480.922	4713.88
481.698	5168.88
482.473	5697.88
483.249	6291.88
484.024	6865.88
484.8	7563.88
485.575	8269.88
486.35	9065.88
487.126	9878.88
487.901	10824.88
488.676	11848.88
489.451	12881.88
490.225	13977.88
491	15241.88
491.775	16586.88
492.55	17822.88
493.324	19235.88
494.099	20664.88
494.873	22063.88
495.647	23575.88
496.422	25067.88
497.196	26555.88
497.97	28152.88
498.744	29616.88
499.518	31007.88
500.292	32181.88
501.066	33311.88
501.839	34495.88
502.613	35371.88
503.387	35894.88
504.16	36342.88
504.934	36498.88
505.707	36495.88
506.48	36349.88
507.253	35819.88
508.027	35362.88
508.8	34603.88
509.573	33765.88
510.346	32804.88
511.118	31841.88
511.891	30705.88
512.664	29542.88
513.437	28290.88
514.209	27072.88
514.982	26061.88
515.754	24930.88
516.526	23859.88
517.298	22819.88
518.071	21911.88
518.843	20964.88
519.615	20103.88
520.387	19258.88
521.159	18559.88
521.93	17831.88
522.702	17111.88
523.474	16442.88
524.245	15797.88
525.017	15073.88
525.788	14342.88
526.56	13738.88
527.331	13028.88
528.102	12430.88
528.873	11851.88
529.644	11257.88
530.415	10694.88
531.186	10236.88
531.957	9631.88
532.728	9122.88
533.498	8600.88
534.269	8157.88
535.039	7681.88
535.81	7268.88
536.58	6864.88
537.351	6438.88
538.121	6118.88
538.891	5790.88
539.661	5477.88
540.431	5187.88
541.201	4927.88
541.971	4660.88
542.741	4428.88
543.51	4226.88
544.28	3978.88
545.05	3804.88
545.819	3617.88
546.588	3436.88
547.358	3250.88
548.127	3077.88
548.896	2924.88
549.665	2786.88
550.434	2638.88
551.203	2491.88
551.972	2359.88
552.741	2247.88
553.51	2110.88
554.278	1985.88
555.047	1866.88
555.815	1769.88
556.584	1661.88
557.352	1569.88
558.121	1477.88
558.889	1401.88
559.657	1330.88
560.425	1232.88
561.193	1189.88
561.961	1113.88
562.729	1060.88
563.496	1000.88
564.264	951.88
565.032	884.88
565.799	848.88
566.567	802.88
567.334	764.88
568.101	710.88
568.869	672.88
569.636	635.88
570.403	614.88
571.17	566.88
571.937	543.88
572.704	499.88
573.471	481.88
574.237	450.88
575.004	418.88
575.771	396.88
576.537	365.88
577.303	352.88
578.07	337.88
578.836	315.88
579.602	295.88
580.368	284.88
581.134	269.88
581.9	248.88
582.666	238.88
583.432	224.88
584.198	212.88
584.964	203.88
585.729	200.88
586.495	179.88
587.26	175.88
588.025	169.88
588.791	160.88
589.556	146.88
590.321	144.88
591.086	133.88
591.851	128.88
592.616	121.88
593.381	114.88
594.146	111.88
594.911	107.88
595.675	99.88
596.44	97.88
597.204	90.88
597.969	86.88
598.733	82.88
599.497	79.88
600.261	75.88
601.025	78.88
601.79	68.88
602.553	67.88
603.317	64.88
604.081	58.88
604.845	56.88
605.609	52.88
606.372	51.88
607.136	53.88
607.899	51.88
608.662	48.88
609.426	45.88
610.189	43.88
610.952	43.88
611.715	42.88
612.478	39.88
613.241	38.88
614.004	38.88
614.767	35.88
615.529	34.88
616.292	34.88
617.055	29.88
617.817	28.88
618.579	27.88
619.342	31.88
620.104	24.88
620.866	28.88
621.628	27.88
622.39	22.88
623.152	25.88
623.914	20.88
624.676	21.88
625.438	22.88
626.199	19.88
626.961	23.88
627.722	20.88
628.484	20.88
629.245	19.88
630.006	20.88
630.768	19.88
631.529	16.88
632.29	16.88
633.051	13.88
633.812	17.88
634.573	15.88
635.333	14.88
636.094	15.88
636.855	16.88
637.615	13.88
638.376	13.88
639.136	13.88
639.896	11.88
640.657	11.88
641.417	11.88
642.177	12.88
642.937	9.88
643.697	12.88
644.457	11.88
645.216	10.88
645.976	9.88
646.736	11.88
647.495	5.88
648.255	10.88
649.014	9.88
649.774	9.88
650.533	9.88
651.292	9.88
652.051	9.88
652.81	8.88
653.569	6.88
654.328	9.88
655.087	6.88
655.846	7.88
656.604	7.88
657.363	7.88
658.121	5.88
658.88	8.88
659.638	6.88
660.397	7.88
661.155	7.88
661.913	6.88
662.671	7.88
663.429	5.88
664.187	4.88
664.945	3.88
665.703	6.88
666.46	6.88
667.218	7.88
667.976	4.88
668.733	6.88
669.49	3.88
670.248	7.88
671.005	7.88
671.762	5.88
672.519	5.88
673.276	5.88
674.033	7.88
674.79	3.88
675.547	4.88
676.304	3.88
677.06	5.88
677.817	4.88
678.574	4.88
679.33	7.88
680.086	2.88
680.843	8.88
681.599	6.88
682.355	5.88
683.111	3.88
683.867	5.88
684.623	6.88
685.379	4.88
686.135	6.88
686.89	5.88
687.646	4.88
688.402	4.88
689.157	4.88
689.912	2.88
690.668	4.88
691.423	4.88
692.178	4.88
692.933	4.88
693.688	6.88
694.443	6.88
695.198	4.88
695.953	2.88
696.708	1.88
697.462	5.88
698.217	3.88
698.972	5.88
699.726	3.88
700.48	3.88
701.235	4.88
701.989	5.88
702.743	3.88
703.497	1.88
704.251	5.88
705.005	3.88
705.759	2.88
706.513	4.88
707.266	2.88
708.02	4.88
708.774	4.88
709.527	6.88
710.28	2.88
711.034	4.88
711.787	3.88
712.54	4.88
713.293	4.88
714.046	3.88
714.799	3.88
715.552	4.88
716.305	3.88
717.058	4.88
717.81	3.88
718.563	5.88
719.315	3.88
720.068	3.88
720.82	3.88
721.573	4.88
722.325	4.88
723.077	2.88
723.829	3.88
724.581	3.88
725.333	6.88
726.085	4.88
726.836	5.88
727.588	4.88
728.34	5.88
729.091	5.88
729.843	5.88
730.594	2.88
731.346	6.88
732.097	5.88
732.848	5.88
733.599	5.88
734.35	4.88
735.101	6.88
735.852	7.88
736.603	7.88
737.354	6.88
738.104	2.88
738.855	6.88
739.605	6.88
740.356	6.88
741.106	6.88
741.856	6.88
742.607	6.88
743.357	6.88
744.107	4.88
744.857	3.88
745.607	6.88
746.357	4.88
747.106	5.88
747.856	7.88
748.606	6.88
749.355	6.88
750.105	7.88
750.854	5.88
751.603	7.88
752.353	5.88
753.102	6.88
753.851	7.88
754.6	5.88
755.349	9.88
756.098	5.88
756.847	9.88
757.595	6.88
758.344	8.88
759.093	7.88
759.841	4.88
760.589	8.88
761.338	7.88
762.086	8.88
762.834	7.88
763.582	4.88
764.331	5.88
765.079	6.88
765.826	9.88
766.574	8.88
767.322	8.88
768.07	8.88
768.817	8.88
769.565	11.88
770.312	9.88
771.06	11.88
771.807	12.88
772.554	9.88
773.302	10.88
774.049	8.88
774.796	10.88
775.543	10.88
776.29	12.88
777.036	11.88
777.783	11.88
778.53	10.88
779.276	10.88
780.023	13.88
780.769	9.88
781.516	8.88
782.262	10.88
783.008	9.88
783.754	9.88
784.5	10.88
785.246	12.88
785.992	12.88
786.738	9.88
787.484	11.88
788.23	11.88
788.975	11.88
789.721	10.88
790.466	11.88
791.212	8.88
791.957	9.88
792.702	10.88
793.447	12.88
794.193	11.88
794.938	10.88
795.683	12.88
796.427	10.88
797.172	10.88
797.917	10.88
798.662	9.88
799.406	7.88
800.151	11.88
800.895	8.88
801.64	8.88
802.384	8.88
803.128	8.88
803.872	8.88
804.616	10.88
805.36	6.88
806.104	7.88
806.848	9.88
807.592	7.88
808.336	6.88
809.079	9.88
809.823	6.88
810.566	7.88
811.31	5.88
812.053	5.88
812.796	7.88
813.539	3.88
814.283	5.88
815.026	3.88
815.769	6.88
816.511	5.88
817.254	5.88
817.997	6.88
818.74	4.88
819.482	4.88
820.225	5.88
820.967	4.88
821.71	3.88
822.452	5.88
823.194	4.88
823.936	4.88
824.678	3.88
825.42	4.88
826.162	5.88
826.904	6.88
827.646	4.88
828.388	5.88
829.129	4.88
829.871	3.88
830.612	3.88
831.354	4.88
832.095	6.88
832.836	2.88
833.577	5.88
834.319	3.88
835.06	3.88
835.801	3.88
836.542	2.88
837.282	4.88
838.023	3.88
838.764	4.88
839.504	6.88
840.245	6.88
840.985	2.88
841.726	3.88
842.466	3.88
843.206	1.88
843.946	3.88
844.687	3.88
845.427	4.88
846.166	2.88
846.906	1.88
847.646	5.88
848.386	3.88
849.125	2.88
849.865	3.88
850.605	2.88
851.344	1.88
852.083	2.88
852.823	3.88
853.562	2.88
854.301	1.88
855.04	4.88
855.779	-0.12
856.518	1.88
857.257	1.88
857.995	3.88
858.734	3.88
859.473	1.88
860.211	2.88
860.95	0.88
861.688	1.88
862.426	5.88
863.165	-0.12
863.903	-0.12
864.641	0.88
865.379	0.88
866.117	2.88
866.855	1.88
867.593	1.88
868.33	3.88
869.068	0.88
869.806	-0.12
870.543	1.88
871.28	2.88
872.018	-0.12
872.755	0.88
873.492	2.88
874.229	0.88
874.967	0.88
875.703	1.88
876.44	0.88
877.177	2.88
877.914	1.88
878.651	0.88
879.387	0.88
880.124	-0.12
880.86	-0.12
881.597	0.88
882.333	-1.12
883.069	1.88
883.806	-1.12
884.542	1.88
885.278	-0.12
886.014	1.88
886.749	-0.12
887.485	-0.12
888.221	1.88
888.957	-0.12
889.692	0.88
890.428	2.88
891.163	-0.12
891.899	3.88
892.634	0.88
893.369	-2.12
894.104	1.88
894.839	0.88
895.574	1.88
896.309	-1.12
897.044	-1.12
897.779	0.88
898.514	2.88
899.248	1.88
899.983	0.88
900.717	-1.12
901.452	-1.12
902.186	-1.12
902.92	1.88
903.654	1.88
904.389	0.88
905.123	-0.12
905.857	1.88
906.59	2.88
907.324	-0.12
908.058	-1.12
908.792	-1.12
909.525	-0.12
910.259	-0.12
910.992	0.88
911.726	-0.12
912.459	-1.12
913.192	-0.12
913.925	-1.12
914.658	-0.12
915.391	1.88
916.124	-1.12
916.857	-1.12
917.59	-0.12
918.323	-0.12
919.055	0.88
919.788	-0.12
920.521	0.88
921.253	-0.12
921.985	-0.12
922.718	-1.12
923.45	0.88
924.182	-2.12
924.914	0.88
925.646	-0.12
926.378	-1.12
927.11	-0.12
927.841	-2.12
928.573	0.88
929.305	0.88
930.036	-0.12
930.768	-1.12
931.499	-0.12
932.23	-1.12
932.962	-0.12
933.693	-0.12
934.424	-0.12
935.155	-0.12
935.886	-0.12
936.617	-0.12
937.348	0.88
938.078	0.88
938.809	0.88
939.54	-0.12
940.27	-0.12
941.001	-2.12
941.731	0.88
942.461	1.88
943.191	-0.12
943.922	-0.12
944.652	0.88
945.382	-1.12
946.112	-1.12
946.841	-0.12
947.571	-2.12
948.301	-0.12
949.031	-2.12
949.76	1.88
950.49	-0.12
951.219	0.88
951.948	-2.12
952.678	-1.12
953.407	0.88
954.136	-0.12
954.865	-0.12
955.594	-2.12
956.323	-0.12
957.052	-2.12
957.78	-1.12
958.509	-1.12
959.238	-0.12
959.966	-0.12
960.695	-0.12
961.423	1.88
962.151	0.88
962.88	0.88
963.608	-1.12
964.336	-0.12
965.064	-0.12
965.792	-2.12
966.52	-2.12
967.247	-0.12
967.975	-2.12
968.703	1.88
969.43	-2.12
970.158	-0.12
970.885	1.88
971.613	-0.12
972.34	0.88
973.067	-2.12
973.794	0.88
974.521	-0.12
975.248	-2.12
975.975	0.88
976.702	0.88
977.429	0.88
978.156	-1.12
978.882	1.88
979.609	0.88
980.335	1.88
981.062	1.88
981.788	-0.12
982.514	-1.12
983.24	-1.12
983.967	-0.12
984.693	2.88
985.419	0.88
986.144	-0.12
986.87	-1.12
987.596	-0.12
988.322	0.88
989.047	-3.12
989.773	-0.12
990.498	-0.12
991.224	0.88
991.949	-1.12
992.674	1.88
993.399	-0.12
994.124	0.88
994.849	-2.12
995.574	-1.12
996.299	-1.12
997.024	-0.12
997.749	0.88
998.473	0.88
999.198	-2.12
999.922	-0.12
1000.647	-1.12
1001.371	2.88
1002.095	-1.12
1002.82	-0.12
1003.544	-0.12
1004.268	3.88
1004.992	2.88
1005.716	1.88
1006.439	5.88
1007.163	0.88
1007.887	4.88
1008.611	0.88
1009.334	-0.12
1010.058	-1.12
1010.781	0.88
1011.504	-0.12
1012.228	1.88
1012.951	-0.12
1013.674	-0.12
1014.397	-0.12
1015.12	-1.12
