节点500_425_QEPB04081__435__15-55-32-617.txt的数据

Date: Wed Nov 12 15:55:32 CST 2025
User: PC
Spectrometer: QEPB0408
触发模式: 0
积分时间 (秒): 1.000000E-2
Scans to average: 1
启用暗噪声校正: true
启用非线性校正: false
滑动平均宽度: 0
X轴模式: Wavelengths
Number of Pixels in Spectrum: 1044
>>>>>Begin Spectral Data<<<<<
220.843	3.25
221.644	2.25
222.444	2.25
223.244	1.25
224.045	3.25
224.845	5.25
225.645	4.25
226.445	4.25
227.245	4.25
228.045	5.25
228.845	1.25
229.645	4.25
230.444	4.25
231.244	7.25
232.043	4.25
232.843	4.25
233.642	6.25
234.442	2.25
235.241	6.25
236.04	6.25
236.839	6.25
237.638	8.25
238.437	4.25
239.236	7.25
240.035	6.25
240.833	9.25
241.632	8.25
242.43	4.25
243.229	7.25
244.027	8.25
244.826	8.25
245.624	9.25
246.422	6.25
247.22	10.25
248.018	9.25
248.816	9.25
249.614	8.25
250.412	8.25
251.21	9.25
252.007	10.25
252.805	9.25
253.602	8.25
254.4	9.25
255.197	11.25
255.994	9.25
256.791	10.25
257.589	15.25
258.386	12.25
259.183	13.25
259.979	14.25
260.776	12.25
261.573	12.25
262.37	13.25
263.166	16.25
263.963	14.25
264.759	13.25
265.556	15.25
266.352	14.25
267.148	14.25
267.944	18.25
268.74	15.25
269.536	20.25
270.332	20.25
271.128	19.25
271.924	22.25
272.719	19.25
273.515	22.25
274.311	22.25
275.106	22.25
275.901	20.25
276.697	20.25
277.492	21.25
278.287	24.25
279.082	23.25
279.877	23.25
280.672	21.25
281.467	25.25
282.262	21.25
283.056	22.25
283.851	23.25
284.646	23.25
285.44	25.25
286.234	23.25
287.029	24.25
287.823	22.25
288.617	26.25
289.411	23.25
290.205	22.25
290.999	22.25
291.793	23.25
292.587	20.25
293.381	22.25
294.174	21.25
294.968	20.25
295.761	17.25
296.555	19.25
297.348	17.25
298.141	19.25
298.935	19.25
299.728	19.25
300.521	21.25
301.314	17.25
302.107	18.25
302.899	16.25
303.692	14.25
304.485	18.25
305.277	13.25
306.07	15.25
306.862	16.25
307.655	17.25
308.447	14.25
309.239	16.25
310.031	15.25
310.823	14.25
311.615	12.25
312.407	13.25
313.199	12.25
313.991	9.25
314.783	11.25
315.574	12.25
316.366	10.25
317.157	13.25
317.949	10.25
318.74	11.25
319.531	10.25
320.322	8.25
321.113	11.25
321.904	8.25
322.695	10.25
323.486	8.25
324.277	10.25
325.068	7.25
325.858	9.25
326.649	11.25
327.439	9.25
328.23	9.25
329.02	8.25
329.81	8.25
330.6	9.25
331.391	6.25
332.181	7.25
332.971	6.25
333.76	7.25
334.55	10.25
335.34	9.25
336.13	9.25
336.919	7.25
337.709	9.25
338.498	9.25
339.287	6.25
340.077	9.25
340.866	7.25
341.655	7.25
342.444	9.25
343.233	5.25
344.022	5.25
344.811	8.25
345.6	9.25
346.388	9.25
347.177	8.25
347.965	6.25
348.754	7.25
349.542	8.25
350.33	6.25
351.119	7.25
351.907	8.25
352.695	7.25
353.483	8.25
354.271	8.25
355.059	9.25
355.846	8.25
356.634	7.25
357.422	4.25
358.209	5.25
358.997	8.25
359.784	6.25
360.571	6.25
361.359	6.25
362.146	6.25
362.933	8.25
363.72	6.25
364.507	7.25
365.294	6.25
366.081	7.25
366.867	6.25
367.654	7.25
368.44	6.25
369.227	7.25
370.013	8.25
370.8	9.25
371.586	5.25
372.372	7.25
373.158	7.25
373.944	7.25
374.73	7.25
375.516	4.25
376.302	6.25
377.088	5.25
377.873	9.25
378.659	7.25
379.445	6.25
380.23	6.25
381.015	4.25
381.801	7.25
382.586	4.25
383.371	9.25
384.156	7.25
384.941	10.25
385.726	5.25
386.511	6.25
387.296	7.25
388.08	4.25
388.865	8.25
389.649	6.25
390.434	6.25
391.218	8.25
392.003	7.25
392.787	8.25
393.571	10.25
394.355	8.25
395.139	6.25
395.923	7.25
396.707	7.25
397.491	9.25
398.274	8.25
399.058	8.25
399.842	8.25
400.625	6.25
401.408	7.25
402.192	8.25
402.975	9.25
403.758	9.25
404.541	8.25
405.324	10.25
406.107	11.25
406.89	10.25
407.673	12.25
408.456	9.25
409.238	10.25
410.021	12.25
410.803	10.25
411.586	12.25
412.368	12.25
413.151	10.25
413.933	9.25
414.715	12.25
415.497	11.25
416.279	10.25
417.061	10.25
417.843	12.25
418.624	14.25
419.406	14.25
420.188	14.25
420.969	14.25
421.751	14.25
422.532	14.25
423.313	15.25
424.095	14.25
424.876	17.25
425.657	15.25
426.438	14.25
427.219	15.25
428	17.25
428.78	16.25
429.561	17.25
430.342	20.25
431.122	20.25
431.903	18.25
432.683	21.25
433.464	20.25
434.244	24.25
435.024	24.25
435.804	26.25
436.584	27.25
437.364	27.25
438.144	31.25
438.924	27.25
439.704	35.25
440.483	32.25
441.263	36.25
442.042	40.25
442.822	37.25
443.601	41.25
444.38	47.25
445.16	49.25
445.939	52.25
446.718	57.25
447.497	61.25
448.276	64.25
449.054	74.25
449.833	82.25
450.612	85.25
451.391	96.25
452.169	111.25
452.948	117.25
453.726	129.25
454.504	138.25
455.282	154.25
456.061	175.25
456.839	193.25
457.617	217.25
458.395	244.25
459.172	275.25
459.95	296.25
460.728	339.25
461.506	372.25
462.283	409.25
463.061	466.25
463.838	512.25
464.615	577.25
465.393	636.25
466.17	708.25
466.947	789.25
467.724	873.25
468.501	978.25
469.278	1082.25
470.055	1199.25
470.831	1308.25
471.608	1448.25
472.385	1610.25
473.161	1778.25
473.938	1967.25
474.714	2175.25
475.49	2367.25
476.266	2613.25
477.043	2873.25
477.819	3156.25
478.595	3455.25
479.371	3792.25
480.146	4124.25
480.922	4518.25
481.698	4976.25
482.473	5410.25
483.249	5897.25
484.024	6440.25
484.8	7063.25
485.575	7658.25
486.35	8299.25
487.126	9040.25
487.901	9884.25
488.676	10697.25
489.451	11559.25
490.225	12544.25
491	13630.25
491.775	14752.25
492.55	15849.25
493.324	17056.25
494.099	18299.25
494.873	19504.25
495.647	20797.25
496.422	22189.25
497.196	23504.25
497.97	24856.25
498.744	26208.25
499.518	27549.25
500.292	28729.25
501.066	29840.25
501.839	30862.25
502.613	31892.25
503.387	32669.25
504.16	33288.25
504.934	33688.25
505.707	33913.25
506.48	33878.25
507.253	33810.25
508.027	33607.25
508.8	33139.25
509.573	32630.25
510.346	31947.25
511.118	31017.25
511.891	30258.25
512.664	29240.25
513.437	28235.25
514.209	27134.25
514.982	26258.25
515.754	25133.25
516.526	24111.25
517.298	23127.25
518.071	22232.25
518.843	21252.25
519.615	20412.25
520.387	19646.25
521.159	18806.25
521.93	18178.25
522.702	17473.25
523.474	16740.25
524.245	16047.25
525.017	15392.25
525.788	14627.25
526.56	14046.25
527.331	13408.25
528.102	12771.25
528.873	12169.25
529.644	11614.25
530.415	11102.25
531.186	10581.25
531.957	10037.25
532.728	9515.25
533.498	9007.25
534.269	8567.25
535.039	8088.25
535.81	7634.25
536.58	7219.25
537.351	6834.25
538.121	6476.25
538.891	6111.25
539.661	5791.25
540.431	5495.25
541.201	5187.25
541.971	4926.25
542.741	4663.25
543.51	4434.25
544.28	4198.25
545.05	4007.25
545.819	3841.25
546.588	3639.25
547.358	3427.25
548.127	3251.25
548.896	3077.25
549.665	2938.25
550.434	2817.25
551.203	2663.25
551.972	2518.25
552.741	2401.25
553.51	2274.25
554.278	2125.25
555.047	2007.25
555.815	1896.25
556.584	1788.25
557.352	1697.25
558.121	1588.25
558.889	1510.25
559.657	1425.25
560.425	1358.25
561.193	1269.25
561.961	1209.25
562.729	1124.25
563.496	1078.25
564.264	1010.25
565.032	967.25
565.799	908.25
566.567	859.25
567.334	801.25
568.101	779.25
568.869	725.25
569.636	685.25
570.403	640.25
571.17	605.25
571.937	582.25
572.704	545.25
573.471	515.25
574.237	481.25
575.004	449.25
575.771	432.25
576.537	401.25
577.303	381.25
578.07	358.25
578.836	336.25
579.602	319.25
580.368	312.25
581.134	288.25
581.9	267.25
582.666	259.25
583.432	250.25
584.198	228.25
584.964	221.25
585.729	206.25
586.495	199.25
587.26	186.25
588.025	180.25
588.791	166.25
589.556	162.25
590.321	149.25
591.086	143.25
591.851	137.25
592.616	131.25
593.381	123.25
594.146	119.25
594.911	111.25
595.675	106.25
596.44	99.25
597.204	97.25
597.969	91.25
598.733	94.25
599.497	83.25
600.261	79.25
601.025	80.25
601.79	72.25
602.553	74.25
603.317	73.25
604.081	65.25
604.845	63.25
605.609	58.25
606.372	59.25
607.136	52.25
607.899	54.25
608.662	49.25
609.426	50.25
610.189	47.25
610.952	44.25
611.715	38.25
612.478	44.25
613.241	40.25
614.004	40.25
614.767	39.25
615.529	41.25
616.292	36.25
617.055	36.25
617.817	29.25
618.579	30.25
619.342	33.25
620.104	30.25
620.866	32.25
621.628	28.25
622.39	26.25
623.152	26.25
623.914	26.25
624.676	25.25
625.438	22.25
626.199	24.25
626.961	20.25
627.722	21.25
628.484	20.25
629.245	18.25
630.006	21.25
630.768	19.25
631.529	13.25
632.29	18.25
633.051	15.25
633.812	14.25
634.573	16.25
635.333	15.25
636.094	16.25
636.855	16.25
637.615	13.25
638.376	12.25
639.136	16.25
639.896	16.25
640.657	14.25
641.417	14.25
642.177	11.25
642.937	12.25
643.697	10.25
644.457	11.25
645.216	13.25
645.976	13.25
646.736	10.25
647.495	8.25
648.255	10.25
649.014	11.25
649.774	8.25
650.533	8.25
651.292	8.25
652.051	10.25
652.81	9.25
653.569	9.25
654.328	7.25
655.087	7.25
655.846	9.25
656.604	6.25
657.363	8.25
658.121	9.25
658.88	5.25
659.638	8.25
660.397	8.25
661.155	9.25
661.913	8.25
662.671	7.25
663.429	5.25
664.187	7.25
664.945	7.25
665.703	7.25
666.46	5.25
667.218	6.25
667.976	6.25
668.733	9.25
669.49	5.25
670.248	9.25
671.005	6.25
671.762	4.25
672.519	5.25
673.276	6.25
674.033	7.25
674.79	3.25
675.547	6.25
676.304	7.25
677.06	2.25
677.817	7.25
678.574	6.25
679.33	4.25
680.086	4.25
680.843	6.25
681.599	4.25
682.355	4.25
683.111	6.25
683.867	4.25
684.623	7.25
685.379	4.25
686.135	4.25
686.89	6.25
687.646	5.25
688.402	5.25
689.157	4.25
689.912	4.25
690.668	2.25
691.423	3.25
692.178	5.25
692.933	4.25
693.688	4.25
694.443	6.25
695.198	7.25
695.953	5.25
696.708	6.25
697.462	4.25
698.217	6.25
698.972	5.25
699.726	3.25
700.48	5.25
701.235	3.25
701.989	5.25
702.743	6.25
703.497	5.25
704.251	6.25
705.005	7.25
705.759	4.25
706.513	4.25
707.266	3.25
708.02	5.25
708.774	5.25
709.527	3.25
710.28	3.25
711.034	6.25
711.787	6.25
712.54	4.25
713.293	6.25
714.046	7.25
714.799	4.25
715.552	5.25
716.305	4.25
717.058	5.25
717.81	6.25
718.563	5.25
719.315	5.25
720.068	4.25
720.82	3.25
721.573	5.25
722.325	3.25
723.077	6.25
723.829	5.25
724.581	7.25
725.333	8.25
726.085	4.25
726.836	6.25
727.588	5.25
728.34	7.25
729.091	4.25
729.843	5.25
730.594	6.25
731.346	5.25
732.097	5.25
732.848	7.25
733.599	8.25
734.35	6.25
735.101	2.25
735.852	4.25
736.603	5.25
737.354	4.25
738.104	5.25
738.855	7.25
739.605	6.25
740.356	4.25
741.106	6.25
741.856	7.25
742.607	5.25
743.357	9.25
744.107	6.25
744.857	8.25
745.607	7.25
746.357	7.25
747.106	6.25
747.856	5.25
748.606	6.25
749.355	8.25
750.105	6.25
750.854	6.25
751.603	6.25
752.353	6.25
753.102	4.25
753.851	9.25
754.6	8.25
755.349	7.25
756.098	8.25
756.847	7.25
757.595	7.25
758.344	8.25
759.093	9.25
759.841	8.25
760.589	7.25
761.338	8.25
762.086	8.25
762.834	7.25
763.582	8.25
764.331	8.25
765.079	6.25
765.826	8.25
766.574	9.25
767.322	7.25
768.07	8.25
768.817	11.25
769.565	10.25
770.312	8.25
771.06	10.25
771.807	7.25
772.554	9.25
773.302	11.25
774.049	13.25
774.796	8.25
775.543	11.25
776.29	9.25
777.036	11.25
777.783	8.25
778.53	10.25
779.276	10.25
780.023	10.25
780.769	8.25
781.516	10.25
782.262	12.25
783.008	12.25
783.754	9.25
784.5	10.25
785.246	9.25
785.992	10.25
786.738	8.25
787.484	12.25
788.23	8.25
788.975	9.25
789.721	11.25
790.466	9.25
791.212	11.25
791.957	8.25
792.702	10.25
793.447	10.25
794.193	9.25
794.938	10.25
795.683	7.25
796.427	10.25
797.172	9.25
797.917	10.25
798.662	9.25
799.406	7.25
800.151	7.25
800.895	11.25
801.64	8.25
802.384	10.25
803.128	8.25
803.872	10.25
804.616	7.25
805.36	9.25
806.104	7.25
806.848	10.25
807.592	8.25
808.336	9.25
809.079	6.25
809.823	4.25
810.566	9.25
811.31	7.25
812.053	8.25
812.796	7.25
813.539	3.25
814.283	9.25
815.026	6.25
815.769	7.25
816.511	6.25
817.254	5.25
817.997	7.25
818.74	5.25
819.482	5.25
820.225	4.25
820.967	6.25
821.71	6.25
822.452	2.25
823.194	7.25
823.936	4.25
824.678	6.25
825.42	3.25
826.162	4.25
826.904	4.25
827.646	2.25
828.388	3.25
829.129	6.25
829.871	3.25
830.612	5.25
831.354	2.25
832.095	4.25
832.836	4.25
833.577	5.25
834.319	4.25
835.06	5.25
835.801	4.25
836.542	6.25
837.282	4.25
838.023	5.25
838.764	5.25
839.504	3.25
840.245	4.25
840.985	6.25
841.726	2.25
842.466	6.25
843.206	2.25
843.946	5.25
844.687	2.25
845.427	3.25
846.166	4.25
846.906	5.25
847.646	5.25
848.386	4.25
849.125	4.25
849.865	3.25
850.605	2.25
851.344	4.25
852.083	2.25
852.823	5.25
853.562	3.25
854.301	2.25
855.04	3.25
855.779	3.25
856.518	3.25
857.257	2.25
857.995	0.25
858.734	2.25
859.473	3.25
860.211	4.25
860.95	2.25
861.688	4.25
862.426	5.25
863.165	3.25
863.903	1.25
864.641	1.25
865.379	2.25
866.117	3.25
866.855	4.25
867.593	0.25
868.33	2.25
869.068	3.25
869.806	-0.75
870.543	1.25
871.28	3.25
872.018	0.25
872.755	1.25
873.492	3.25
874.229	1.25
874.967	1.25
875.703	1.25
876.44	0.25
877.177	1.25
877.914	0.25
878.651	2.25
879.387	0.25
880.124	2.25
880.86	1.25
881.597	0.25
882.333	2.25
883.069	0.25
883.806	0.25
884.542	-0.75
885.278	1.25
886.014	0.25
886.749	2.25
887.485	0.25
888.221	2.25
888.957	0.25
889.692	-0.75
890.428	0.25
891.163	1.25
891.899	0.25
892.634	1.25
893.369	2.25
894.104	2.25
894.839	-0.75
895.574	2.25
896.309	0.25
897.044	0.25
897.779	1.25
898.514	-0.75
899.248	0.25
899.983	1.25
900.717	2.25
901.452	0.25
902.186	1.25
902.92	0.25
903.654	-0.75
904.389	1.25
905.123	-1.75
905.857	-0.75
906.59	0.25
907.324	0.25
908.058	1.25
908.792	1.25
909.525	0.25
910.259	2.25
910.992	-1.75
911.726	0.25
912.459	-1.75
913.192	0.25
913.925	0.25
914.658	1.25
915.391	2.25
916.124	0.25
916.857	-1.75
917.59	-1.75
918.323	0.25
919.055	0.25
919.788	2.25
920.521	-1.75
921.253	1.25
921.985	1.25
922.718	0.25
923.45	3.25
924.182	1.25
924.914	0.25
925.646	-1.75
926.378	0.25
927.11	-0.75
927.841	0.25
928.573	-1.75
929.305	1.25
930.036	1.25
930.768	0.25
931.499	-0.75
932.23	0.25
932.962	0.25
933.693	-1.75
934.424	0.25
935.155	-0.75
935.886	1.25
936.617	-1.75
937.348	1.25
938.078	0.25
938.809	-0.75
939.54	1.25
940.27	-0.75
941.001	0.25
941.731	-1.75
942.461	0.25
943.191	-1.75
943.922	-0.75
944.652	0.25
945.382	0.25
946.112	0.25
946.841	-1.75
947.571	-1.75
948.301	0.25
949.031	-0.75
949.76	0.25
950.49	0.25
951.219	1.25
951.948	-1.75
952.678	0.25
953.407	0.25
954.136	-0.75
954.865	2.25
955.594	0.25
956.323	0.25
957.052	1.25
957.78	-0.75
958.509	0.25
959.238	0.25
959.966	-0.75
960.695	0.25
961.423	-1.75
962.151	-0.75
962.88	-0.75
963.608	1.25
964.336	-0.75
965.064	1.25
965.792	-0.75
966.52	-0.75
967.247	-0.75
967.975	0.25
968.703	0.25
969.43	0.25
970.158	-0.75
970.885	1.25
971.613	-1.75
972.34	-0.75
973.067	2.25
973.794	0.25
974.521	0.25
975.248	-1.75
975.975	1.25
976.702	-1.75
977.429	0.25
978.156	-1.75
978.882	-1.75
979.609	0.25
980.335	1.25
981.062	-0.75
981.788	0.25
982.514	-0.75
983.24	0.25
983.967	1.25
984.693	-0.75
985.419	-0.75
986.144	1.25
986.87	-0.75
987.596	0.25
988.322	-0.75
989.047	-0.75
989.773	2.25
990.498	0.25
991.224	0.25
991.949	-2.75
992.674	-0.75
993.399	2.25
994.124	-0.75
994.849	-0.75
995.574	1.25
996.299	1.25
997.024	0.25
997.749	1.25
998.473	2.25
999.198	0.25
999.922	-0.75
1000.647	2.25
1001.371	3.25
1002.095	-1.75
1002.82	1.25
1003.544	-0.75
1004.268	3.25
1004.992	3.25
1005.716	2.25
1006.439	2.25
1007.163	0.25
1007.887	3.25
1008.611	0.25
1009.334	1.25
1010.058	0.25
1010.781	-0.75
1011.504	-1.75
1012.228	1.25
1012.951	-0.75
1013.674	-1.75
1014.397	-0.75
1015.12	1.25
