节点500_425_QEPB04081__62__15-49-20-399.txt的数据

Date: Wed Nov 12 15:49:20 CST 2025
User: PC
Spectrometer: QEPB0408
触发模式: 0
积分时间 (秒): 1.000000E-2
Scans to average: 1
启用暗噪声校正: true
启用非线性校正: false
滑动平均宽度: 0
X轴模式: Wavelengths
Number of Pixels in Spectrum: 1044
>>>>>Begin Spectral Data<<<<<
220.843	4.25
221.644	2.25
222.444	1.25
223.244	3.25
224.045	3.25
224.845	3.25
225.645	4.25
226.445	4.25
227.245	4.25
228.045	4.25
228.845	4.25
229.645	4.25
230.444	6.25
231.244	5.25
232.043	5.25
232.843	7.25
233.642	7.25
234.442	6.25
235.241	6.25
236.04	4.25
236.839	4.25
237.638	7.25
238.437	5.25
239.236	5.25
240.035	7.25
240.833	7.25
241.632	8.25
242.43	7.25
243.229	8.25
244.027	8.25
244.826	6.25
245.624	8.25
246.422	8.25
247.22	9.25
248.018	10.25
248.816	8.25
249.614	11.25
250.412	12.25
251.21	9.25
252.007	12.25
252.805	13.25
253.602	10.25
254.4	12.25
255.197	14.25
255.994	12.25
256.791	12.25
257.589	14.25
258.386	15.25
259.183	14.25
259.979	16.25
260.776	18.25
261.573	13.25
262.37	14.25
263.166	17.25
263.963	20.25
264.759	20.25
265.556	17.25
266.352	18.25
267.148	22.25
267.944	24.25
268.74	23.25
269.536	18.25
270.332	24.25
271.128	23.25
271.924	23.25
272.719	23.25
273.515	22.25
274.311	22.25
275.106	24.25
275.901	24.25
276.697	25.25
277.492	29.25
278.287	23.25
279.082	29.25
279.877	26.25
280.672	25.25
281.467	26.25
282.262	27.25
283.056	27.25
283.851	26.25
284.646	27.25
285.44	26.25
286.234	28.25
287.029	27.25
287.823	25.25
288.617	24.25
289.411	27.25
290.205	24.25
290.999	25.25
291.793	22.25
292.587	23.25
293.381	26.25
294.174	25.25
294.968	25.25
295.761	22.25
296.555	21.25
297.348	19.25
298.141	19.25
298.935	23.25
299.728	19.25
300.521	20.25
301.314	21.25
302.107	18.25
302.899	15.25
303.692	16.25
304.485	16.25
305.277	17.25
306.07	18.25
306.862	15.25
307.655	15.25
308.447	16.25
309.239	14.25
310.031	15.25
310.823	12.25
311.615	14.25
312.407	14.25
313.199	13.25
313.991	12.25
314.783	11.25
315.574	12.25
316.366	10.25
317.157	12.25
317.949	9.25
318.74	10.25
319.531	10.25
320.322	8.25
321.113	9.25
321.904	10.25
322.695	10.25
323.486	11.25
324.277	9.25
325.068	10.25
325.858	8.25
326.649	9.25
327.439	9.25
328.23	8.25
329.02	9.25
329.81	8.25
330.6	8.25
331.391	10.25
332.181	10.25
332.971	8.25
333.76	6.25
334.55	8.25
335.34	9.25
336.13	8.25
336.919	9.25
337.709	9.25
338.498	7.25
339.287	8.25
340.077	9.25
340.866	7.25
341.655	8.25
342.444	5.25
343.233	6.25
344.022	8.25
344.811	9.25
345.6	5.25
346.388	9.25
347.177	9.25
347.965	9.25
348.754	8.25
349.542	8.25
350.33	6.25
351.119	9.25
351.907	7.25
352.695	7.25
353.483	9.25
354.271	8.25
355.059	7.25
355.846	7.25
356.634	6.25
357.422	7.25
358.209	8.25
358.997	9.25
359.784	6.25
360.571	6.25
361.359	7.25
362.146	8.25
362.933	7.25
363.72	9.25
364.507	6.25
365.294	10.25
366.081	7.25
366.867	6.25
367.654	7.25
368.44	8.25
369.227	8.25
370.013	7.25
370.8	5.25
371.586	7.25
372.372	8.25
373.158	4.25
373.944	7.25
374.73	7.25
375.516	8.25
376.302	8.25
377.088	7.25
377.873	8.25
378.659	6.25
379.445	9.25
380.23	7.25
381.015	6.25
381.801	9.25
382.586	4.25
383.371	8.25
384.156	7.25
384.941	7.25
385.726	9.25
386.511	6.25
387.296	9.25
388.08	9.25
388.865	8.25
389.649	6.25
390.434	8.25
391.218	8.25
392.003	7.25
392.787	10.25
393.571	8.25
394.355	7.25
395.139	9.25
395.923	9.25
396.707	11.25
397.491	7.25
398.274	11.25
399.058	10.25
399.842	8.25
400.625	8.25
401.408	10.25
402.192	11.25
402.975	10.25
403.758	10.25
404.541	12.25
405.324	9.25
406.107	11.25
406.89	9.25
407.673	10.25
408.456	10.25
409.238	11.25
410.021	13.25
410.803	12.25
411.586	12.25
412.368	14.25
413.151	11.25
413.933	16.25
414.715	14.25
415.497	14.25
416.279	14.25
417.061	17.25
417.843	16.25
418.624	15.25
419.406	14.25
420.188	11.25
420.969	15.25
421.751	15.25
422.532	12.25
423.313	19.25
424.095	16.25
424.876	16.25
425.657	16.25
426.438	16.25
427.219	20.25
428	21.25
428.78	17.25
429.561	18.25
430.342	20.25
431.122	19.25
431.903	18.25
432.683	23.25
433.464	23.25
434.244	22.25
435.024	21.25
435.804	24.25
436.584	28.25
437.364	25.25
438.144	28.25
438.924	31.25
439.704	34.25
440.483	33.25
441.263	33.25
442.042	37.25
442.822	39.25
443.601	42.25
444.38	43.25
445.16	45.25
445.939	50.25
446.718	56.25
447.497	61.25
448.276	64.25
449.054	65.25
449.833	70.25
450.612	82.25
451.391	87.25
452.169	96.25
452.948	104.25
453.726	118.25
454.504	129.25
455.282	141.25
456.061	153.25
456.839	175.25
457.617	185.25
458.395	211.25
459.172	238.25
459.95	262.25
460.728	297.25
461.506	331.25
462.283	367.25
463.061	407.25
463.838	459.25
464.615	526.25
465.393	576.25
466.17	648.25
466.947	730.25
467.724	817.25
468.501	907.25
469.278	1012.25
470.055	1122.25
470.831	1245.25
471.608	1386.25
472.385	1545.25
473.161	1730.25
473.938	1900.25
474.714	2131.25
475.49	2357.25
476.266	2603.25
477.043	2876.25
477.819	3213.25
478.595	3568.25
479.371	3926.25
480.146	4309.25
480.922	4778.25
481.698	5265.25
482.473	5820.25
483.249	6362.25
484.024	7034.25
484.8	7743.25
485.575	8488.25
486.35	9257.25
487.126	10219.25
487.901	11178.25
488.676	12292.25
489.451	13363.25
490.225	14569.25
491	15927.25
491.775	17220.25
492.55	18611.25
493.324	20102.25
494.099	21615.25
494.873	23096.25
495.647	24621.25
496.422	26211.25
497.196	27743.25
497.97	29413.25
498.744	30916.25
499.518	32307.25
500.292	33561.25
501.066	34626.25
501.839	35775.25
502.613	36520.25
503.387	37029.25
504.16	37423.25
504.934	37499.25
505.707	37270.25
506.48	36958.25
507.253	36445.25
508.027	35777.25
508.8	35006.25
509.573	33985.25
510.346	32987.25
511.118	31877.25
511.891	30673.25
512.664	29431.25
513.437	28112.25
514.209	26904.25
514.982	25823.25
515.754	24695.25
516.526	23595.25
517.298	22600.25
518.071	21650.25
518.843	20721.25
519.615	19833.25
520.387	19094.25
521.159	18396.25
521.93	17706.25
522.702	16970.25
523.474	16273.25
524.245	15608.25
525.017	14871.25
525.788	14214.25
526.56	13516.25
527.331	12914.25
528.102	12266.25
528.873	11610.25
529.644	11019.25
530.415	10475.25
531.186	9974.25
531.957	9417.25
532.728	8889.25
533.498	8380.25
534.269	7933.25
535.039	7490.25
535.81	7096.25
536.58	6667.25
537.351	6297.25
538.121	5982.25
538.891	5658.25
539.661	5325.25
540.431	5063.25
541.201	4788.25
541.971	4568.25
542.741	4313.25
543.51	4104.25
544.28	3881.25
545.05	3689.25
545.819	3525.25
546.588	3347.25
547.358	3176.25
548.127	2986.25
548.896	2828.25
549.665	2684.25
550.434	2555.25
551.203	2421.25
551.972	2289.25
552.741	2166.25
553.51	2048.25
554.278	1933.25
555.047	1818.25
555.815	1695.25
556.584	1626.25
557.352	1538.25
558.121	1433.25
558.889	1366.25
559.657	1279.25
560.425	1208.25
561.193	1145.25
561.961	1087.25
562.729	1029.25
563.496	967.25
564.264	921.25
565.032	869.25
565.799	816.25
566.567	772.25
567.334	734.25
568.101	691.25
568.869	652.25
569.636	621.25
570.403	582.25
571.17	551.25
571.937	521.25
572.704	487.25
573.471	465.25
574.237	440.25
575.004	405.25
575.771	385.25
576.537	358.25
577.303	334.25
578.07	326.25
578.836	301.25
579.602	290.25
580.368	275.25
581.134	260.25
581.9	246.25
582.666	235.25
583.432	220.25
584.198	209.25
584.964	201.25
585.729	187.25
586.495	178.25
587.26	168.25
588.025	162.25
588.791	150.25
589.556	142.25
590.321	139.25
591.086	133.25
591.851	121.25
592.616	121.25
593.381	115.25
594.146	110.25
594.911	102.25
595.675	94.25
596.44	92.25
597.204	87.25
597.969	86.25
598.733	84.25
599.497	78.25
600.261	73.25
601.025	73.25
601.79	72.25
602.553	65.25
603.317	62.25
604.081	60.25
604.845	56.25
605.609	55.25
606.372	54.25
607.136	50.25
607.899	50.25
608.662	50.25
609.426	43.25
610.189	43.25
610.952	39.25
611.715	42.25
612.478	39.25
613.241	38.25
614.004	36.25
614.767	35.25
615.529	34.25
616.292	32.25
617.055	31.25
617.817	28.25
618.579	30.25
619.342	28.25
620.104	29.25
620.866	28.25
621.628	27.25
622.39	25.25
623.152	24.25
623.914	22.25
624.676	22.25
625.438	24.25
626.199	24.25
626.961	19.25
627.722	22.25
628.484	20.25
629.245	18.25
630.006	18.25
630.768	16.25
631.529	19.25
632.29	18.25
633.051	17.25
633.812	14.25
634.573	14.25
635.333	13.25
636.094	14.25
636.855	17.25
637.615	12.25
638.376	14.25
639.136	13.25
639.896	12.25
640.657	13.25
641.417	11.25
642.177	11.25
642.937	12.25
643.697	10.25
644.457	13.25
645.216	11.25
645.976	10.25
646.736	15.25
647.495	9.25
648.255	8.25
649.014	10.25
649.774	11.25
650.533	7.25
651.292	7.25
652.051	10.25
652.81	8.25
653.569	9.25
654.328	8.25
655.087	9.25
655.846	8.25
656.604	8.25
657.363	8.25
658.121	8.25
658.88	8.25
659.638	7.25
660.397	8.25
661.155	7.25
661.913	7.25
662.671	6.25
663.429	6.25
664.187	7.25
664.945	8.25
665.703	6.25
666.46	7.25
667.218	8.25
667.976	6.25
668.733	7.25
669.49	6.25
670.248	6.25
671.005	9.25
671.762	7.25
672.519	4.25
673.276	5.25
674.033	6.25
674.79	4.25
675.547	8.25
676.304	7.25
677.06	7.25
677.817	7.25
678.574	6.25
679.33	5.25
680.086	6.25
680.843	5.25
681.599	5.25
682.355	7.25
683.111	5.25
683.867	7.25
684.623	4.25
685.379	4.25
686.135	7.25
686.89	7.25
687.646	5.25
688.402	4.25
689.157	3.25
689.912	5.25
690.668	5.25
691.423	4.25
692.178	5.25
692.933	4.25
693.688	5.25
694.443	5.25
695.198	5.25
695.953	6.25
696.708	2.25
697.462	6.25
698.217	4.25
698.972	6.25
699.726	6.25
700.48	4.25
701.235	6.25
701.989	5.25
702.743	7.25
703.497	5.25
704.251	5.25
705.005	4.25
705.759	5.25
706.513	4.25
707.266	5.25
708.02	4.25
708.774	3.25
709.527	4.25
710.28	4.25
711.034	4.25
711.787	5.25
712.54	2.25
713.293	7.25
714.046	6.25
714.799	3.25
715.552	6.25
716.305	5.25
717.058	4.25
717.81	4.25
718.563	5.25
719.315	6.25
720.068	4.25
720.82	7.25
721.573	5.25
722.325	6.25
723.077	4.25
723.829	6.25
724.581	6.25
725.333	5.25
726.085	5.25
726.836	2.25
727.588	6.25
728.34	7.25
729.091	5.25
729.843	5.25
730.594	5.25
731.346	6.25
732.097	5.25
732.848	7.25
733.599	6.25
734.35	6.25
735.101	9.25
735.852	8.25
736.603	6.25
737.354	6.25
738.104	6.25
738.855	7.25
739.605	5.25
740.356	7.25
741.106	3.25
741.856	6.25
742.607	7.25
743.357	6.25
744.107	8.25
744.857	8.25
745.607	7.25
746.357	7.25
747.106	7.25
747.856	5.25
748.606	10.25
749.355	8.25
750.105	8.25
750.854	10.25
751.603	7.25
752.353	10.25
753.102	10.25
753.851	7.25
754.6	7.25
755.349	8.25
756.098	7.25
756.847	10.25
757.595	9.25
758.344	11.25
759.093	10.25
759.841	7.25
760.589	9.25
761.338	9.25
762.086	8.25
762.834	8.25
763.582	11.25
764.331	8.25
765.079	10.25
765.826	9.25
766.574	11.25
767.322	12.25
768.07	9.25
768.817	10.25
769.565	11.25
770.312	11.25
771.06	11.25
771.807	10.25
772.554	10.25
773.302	10.25
774.049	11.25
774.796	10.25
775.543	10.25
776.29	11.25
777.036	11.25
777.783	12.25
778.53	10.25
779.276	13.25
780.023	12.25
780.769	12.25
781.516	14.25
782.262	12.25
783.008	11.25
783.754	13.25
784.5	12.25
785.246	12.25
785.992	11.25
786.738	15.25
787.484	13.25
788.23	12.25
788.975	12.25
789.721	14.25
790.466	12.25
791.212	10.25
791.957	10.25
792.702	11.25
793.447	12.25
794.193	12.25
794.938	13.25
795.683	11.25
796.427	10.25
797.172	10.25
797.917	9.25
798.662	10.25
799.406	9.25
800.151	11.25
800.895	11.25
801.64	9.25
802.384	12.25
803.128	8.25
803.872	8.25
804.616	10.25
805.36	7.25
806.104	9.25
806.848	8.25
807.592	7.25
808.336	9.25
809.079	10.25
809.823	8.25
810.566	7.25
811.31	6.25
812.053	8.25
812.796	10.25
813.539	7.25
814.283	5.25
815.026	7.25
815.769	6.25
816.511	6.25
817.254	8.25
817.997	5.25
818.74	5.25
819.482	5.25
820.225	6.25
820.967	4.25
821.71	7.25
822.452	7.25
823.194	5.25
823.936	6.25
824.678	6.25
825.42	5.25
826.162	9.25
826.904	4.25
827.646	4.25
828.388	5.25
829.129	6.25
829.871	4.25
830.612	5.25
831.354	2.25
832.095	7.25
832.836	7.25
833.577	4.25
834.319	4.25
835.06	4.25
835.801	5.25
836.542	5.25
837.282	3.25
838.023	6.25
838.764	5.25
839.504	3.25
840.245	4.25
840.985	1.25
841.726	5.25
842.466	5.25
843.206	6.25
843.946	4.25
844.687	0.25
845.427	3.25
846.166	4.25
846.906	2.25
847.646	2.25
848.386	2.25
849.125	4.25
849.865	4.25
850.605	3.25
851.344	2.25
852.083	2.25
852.823	3.25
853.562	3.25
854.301	3.25
855.04	1.25
855.779	2.25
856.518	2.25
857.257	4.25
857.995	2.25
858.734	2.25
859.473	1.25
860.211	2.25
860.95	2.25
861.688	4.25
862.426	0.25
863.165	3.25
863.903	2.25
864.641	3.25
865.379	1.25
866.117	2.25
866.855	2.25
867.593	1.25
868.33	2.25
869.068	-0.75
869.806	1.25
870.543	1.25
871.28	1.25
872.018	0.25
872.755	2.25
873.492	0.25
874.229	1.25
874.967	0.25
875.703	2.25
876.44	1.25
877.177	2.25
877.914	0.25
878.651	3.25
879.387	2.25
880.124	0.25
880.86	1.25
881.597	2.25
882.333	0.25
883.069	-0.75
883.806	2.25
884.542	1.25
885.278	0.25
886.014	4.25
886.749	1.25
887.485	2.25
888.221	4.25
888.957	3.25
889.692	1.25
890.428	0.25
891.163	1.25
891.899	2.25
892.634	2.25
893.369	2.25
894.104	1.25
894.839	2.25
895.574	1.25
896.309	-0.75
897.044	0.25
897.779	1.25
898.514	1.25
899.248	0.25
899.983	0.25
900.717	2.25
901.452	1.25
902.186	2.25
902.92	1.25
903.654	0.25
904.389	-1.75
905.123	0.25
905.857	0.25
906.59	-1.75
907.324	0.25
908.058	0.25
908.792	0.25
909.525	1.25
910.259	1.25
910.992	1.25
911.726	-0.75
912.459	-0.75
913.192	1.25
913.925	0.25
914.658	0.25
915.391	1.25
916.124	2.25
916.857	1.25
917.59	1.25
918.323	-1.75
919.055	0.25
919.788	1.25
920.521	0.25
921.253	0.25
921.985	1.25
922.718	1.25
923.45	2.25
924.182	0.25
924.914	0.25
925.646	-0.75
926.378	1.25
927.11	0.25
927.841	-1.75
928.573	2.25
929.305	0.25
930.036	2.25
930.768	-0.75
931.499	2.25
932.23	-0.75
932.962	0.25
933.693	1.25
934.424	-0.75
935.155	0.25
935.886	0.25
936.617	1.25
937.348	2.25
938.078	0.25
938.809	-1.75
939.54	-1.75
940.27	1.25
941.001	-1.75
941.731	2.25
942.461	0.25
943.191	-0.75
943.922	-1.75
944.652	0.25
945.382	1.25
946.112	0.25
946.841	-0.75
947.571	0.25
948.301	-1.75
949.031	2.25
949.76	2.25
950.49	2.25
951.219	-0.75
951.948	1.25
952.678	-1.75
953.407	0.25
954.136	2.25
954.865	0.25
955.594	-0.75
956.323	0.25
957.052	-1.75
957.78	0.25
958.509	-3.75
959.238	2.25
959.966	1.25
960.695	0.25
961.423	0.25
962.151	0.25
962.88	-0.75
963.608	-0.75
964.336	-1.75
965.064	0.25
965.792	0.25
966.52	1.25
967.247	0.25
967.975	2.25
968.703	-1.75
969.43	0.25
970.158	2.25
970.885	1.25
971.613	1.25
972.34	1.25
973.067	0.25
973.794	0.25
974.521	0.25
975.248	1.25
975.975	-1.75
976.702	2.25
977.429	0.25
978.156	0.25
978.882	0.25
979.609	-0.75
980.335	2.25
981.062	-1.75
981.788	0.25
982.514	-1.75
983.24	-0.75
983.967	-1.75
984.693	-0.75
985.419	-1.75
986.144	-0.75
986.87	2.25
987.596	-0.75
988.322	0.25
989.047	0.25
989.773	0.25
990.498	-0.75
991.224	-2.75
991.949	2.25
992.674	-0.75
993.399	1.25
994.124	-0.75
994.849	-1.75
995.574	0.25
996.299	0.25
997.024	0.25
997.749	0.25
998.473	1.25
999.198	0.25
999.922	1.25
1000.647	1.25
1001.371	3.25
1002.095	-3.75
1002.82	0.25
1003.544	1.25
1004.268	4.25
1004.992	3.25
1005.716	4.25
1006.439	3.25
1007.163	2.25
1007.887	2.25
1008.611	1.25
1009.334	0.25
1010.058	-1.75
1010.781	-0.75
1011.504	0.25
1012.228	1.25
1012.951	-1.75
1013.674	1.25
1014.397	0.25
1015.12	-0.75
