节点500_425_QEPB04081__168__15-51-06-190.txt的数据

Date: Wed Nov 12 15:51:06 CST 2025
User: PC
Spectrometer: QEPB0408
触发模式: 0
积分时间 (秒): 1.000000E-2
Scans to average: 1
启用暗噪声校正: true
启用非线性校正: false
滑动平均宽度: 0
X轴模式: Wavelengths
Number of Pixels in Spectrum: 1044
>>>>>Begin Spectral Data<<<<<
220.843	1.88
221.644	3.88
222.444	1.88
223.244	4.88
224.045	2.88
224.845	4.88
225.645	5.88
226.445	3.88
227.245	2.88
228.045	4.88
228.845	4.88
229.645	4.88
230.444	2.88
231.244	4.88
232.043	7.88
232.843	6.88
233.642	6.88
234.442	5.88
235.241	7.88
236.04	5.88
236.839	7.88
237.638	5.88
238.437	6.88
239.236	7.88
240.035	6.88
240.833	8.88
241.632	9.88
242.43	6.88
243.229	8.88
244.027	9.88
244.826	5.88
245.624	8.88
246.422	8.88
247.22	8.88
248.018	7.88
248.816	10.88
249.614	8.88
250.412	10.88
251.21	11.88
252.007	11.88
252.805	9.88
253.602	9.88
254.4	14.88
255.197	9.88
255.994	12.88
256.791	16.88
257.589	13.88
258.386	12.88
259.183	14.88
259.979	16.88
260.776	15.88
261.573	14.88
262.37	17.88
263.166	15.88
263.963	17.88
264.759	16.88
265.556	19.88
266.352	16.88
267.148	19.88
267.944	22.88
268.74	20.88
269.536	23.88
270.332	22.88
271.128	24.88
271.924	24.88
272.719	25.88
273.515	22.88
274.311	22.88
275.106	23.88
275.901	26.88
276.697	22.88
277.492	23.88
278.287	26.88
279.082	26.88
279.877	23.88
280.672	23.88
281.467	28.88
282.262	25.88
283.056	26.88
283.851	25.88
284.646	25.88
285.44	25.88
286.234	27.88
287.029	26.88
287.823	23.88
288.617	26.88
289.411	23.88
290.205	26.88
290.999	24.88
291.793	25.88
292.587	25.88
293.381	25.88
294.174	24.88
294.968	23.88
295.761	20.88
296.555	21.88
297.348	17.88
298.141	19.88
298.935	22.88
299.728	21.88
300.521	18.88
301.314	17.88
302.107	20.88
302.899	17.88
303.692	17.88
304.485	17.88
305.277	19.88
306.07	17.88
306.862	14.88
307.655	16.88
308.447	16.88
309.239	15.88
310.031	16.88
310.823	15.88
311.615	16.88
312.407	13.88
313.199	13.88
313.991	13.88
314.783	13.88
315.574	11.88
316.366	12.88
317.157	11.88
317.949	9.88
318.74	12.88
319.531	11.88
320.322	8.88
321.113	12.88
321.904	11.88
322.695	10.88
323.486	10.88
324.277	13.88
325.068	12.88
325.858	9.88
326.649	10.88
327.439	9.88
328.23	10.88
329.02	10.88
329.81	8.88
330.6	9.88
331.391	8.88
332.181	9.88
332.971	10.88
333.76	10.88
334.55	7.88
335.34	9.88
336.13	9.88
336.919	9.88
337.709	9.88
338.498	11.88
339.287	7.88
340.077	8.88
340.866	6.88
341.655	8.88
342.444	8.88
343.233	8.88
344.022	9.88
344.811	8.88
345.6	7.88
346.388	10.88
347.177	9.88
347.965	9.88
348.754	8.88
349.542	9.88
350.33	9.88
351.119	8.88
351.907	7.88
352.695	8.88
353.483	8.88
354.271	8.88
355.059	8.88
355.846	8.88
356.634	9.88
357.422	7.88
358.209	8.88
358.997	7.88
359.784	7.88
360.571	9.88
361.359	6.88
362.146	7.88
362.933	6.88
363.72	8.88
364.507	7.88
365.294	8.88
366.081	8.88
366.867	5.88
367.654	7.88
368.44	6.88
369.227	6.88
370.013	6.88
370.8	7.88
371.586	8.88
372.372	4.88
373.158	6.88
373.944	9.88
374.73	7.88
375.516	9.88
376.302	7.88
377.088	7.88
377.873	6.88
378.659	7.88
379.445	6.88
380.23	7.88
381.015	8.88
381.801	6.88
382.586	5.88
383.371	8.88
384.156	4.88
384.941	9.88
385.726	7.88
386.511	7.88
387.296	8.88
388.08	9.88
388.865	7.88
389.649	9.88
390.434	10.88
391.218	7.88
392.003	8.88
392.787	10.88
393.571	9.88
394.355	7.88
395.139	6.88
395.923	8.88
396.707	11.88
397.491	7.88
398.274	11.88
399.058	10.88
399.842	11.88
400.625	8.88
401.408	9.88
402.192	10.88
402.975	13.88
403.758	10.88
404.541	10.88
405.324	10.88
406.107	10.88
406.89	9.88
407.673	13.88
408.456	12.88
409.238	12.88
410.021	10.88
410.803	12.88
411.586	13.88
412.368	14.88
413.151	11.88
413.933	11.88
414.715	14.88
415.497	15.88
416.279	11.88
417.061	14.88
417.843	13.88
418.624	14.88
419.406	11.88
420.188	14.88
420.969	15.88
421.751	18.88
422.532	18.88
423.313	17.88
424.095	15.88
424.876	14.88
425.657	16.88
426.438	16.88
427.219	17.88
428	18.88
428.78	16.88
429.561	20.88
430.342	20.88
431.122	20.88
431.903	22.88
432.683	20.88
433.464	20.88
434.244	25.88
435.024	23.88
435.804	25.88
436.584	26.88
437.364	28.88
438.144	30.88
438.924	32.88
439.704	32.88
440.483	33.88
441.263	35.88
442.042	38.88
442.822	42.88
443.601	41.88
444.38	42.88
445.16	46.88
445.939	51.88
446.718	54.88
447.497	58.88
448.276	65.88
449.054	70.88
449.833	81.88
450.612	79.88
451.391	89.88
452.169	101.88
452.948	115.88
453.726	116.88
454.504	128.88
455.282	149.88
456.061	163.88
456.839	183.88
457.617	203.88
458.395	225.88
459.172	248.88
459.95	275.88
460.728	303.88
461.506	347.88
462.283	380.88
463.061	431.88
463.838	480.88
464.615	535.88
465.393	601.88
466.17	667.88
466.947	752.88
467.724	830.88
468.501	928.88
469.278	1033.88
470.055	1149.88
470.831	1276.88
471.608	1418.88
472.385	1571.88
473.161	1757.88
473.938	1935.88
474.714	2156.88
475.49	2378.88
476.266	2603.88
477.043	2894.88
477.819	3208.88
478.595	3537.88
479.371	3910.88
480.146	4271.88
480.922	4705.88
481.698	5192.88
482.473	5689.88
483.249	6259.88
484.024	6894.88
484.8	7575.88
485.575	8294.88
486.35	9024.88
487.126	9918.88
487.901	10811.88
488.676	11820.88
489.451	12866.88
490.225	13978.88
491	15202.88
491.775	16475.88
492.55	17837.88
493.324	19166.88
494.099	20622.88
494.873	22025.88
495.647	23530.88
496.422	25011.88
497.196	26551.88
497.97	28136.88
498.744	29550.88
499.518	30971.88
500.292	32179.88
501.066	33328.88
501.839	34348.88
502.613	35283.88
503.387	35879.88
504.16	36345.88
504.934	36544.88
505.707	36438.88
506.48	36328.88
507.253	35787.88
508.027	35368.88
508.8	34684.88
509.573	33769.88
510.346	32897.88
511.118	31805.88
511.891	30707.88
512.664	29542.88
513.437	28306.88
514.209	27075.88
514.982	26009.88
515.754	24983.88
516.526	23893.88
517.298	22852.88
518.071	21909.88
518.843	20968.88
519.615	20104.88
520.387	19340.88
521.159	18532.88
521.93	17835.88
522.702	17175.88
523.474	16451.88
524.245	15775.88
525.017	15080.88
525.788	14420.88
526.56	13698.88
527.331	13048.88
528.102	12458.88
528.873	11844.88
529.644	11258.88
530.415	10752.88
531.186	10203.88
531.957	9637.88
532.728	9135.88
533.498	8558.88
534.269	8145.88
535.039	7698.88
535.81	7290.88
536.58	6893.88
537.351	6430.88
538.121	6105.88
538.891	5790.88
539.661	5465.88
540.431	5215.88
541.201	4920.88
541.971	4647.88
542.741	4430.88
543.51	4210.88
544.28	3981.88
545.05	3791.88
545.819	3629.88
546.588	3451.88
547.358	3275.88
548.127	3075.88
548.896	2936.88
549.665	2802.88
550.434	2630.88
551.203	2499.88
551.972	2374.88
552.741	2243.88
553.51	2117.88
554.278	2006.88
555.047	1872.88
555.815	1785.88
556.584	1677.88
557.352	1581.88
558.121	1485.88
558.889	1414.88
559.657	1333.88
560.425	1249.88
561.193	1174.88
561.961	1120.88
562.729	1059.88
563.496	1002.88
564.264	952.88
565.032	900.88
565.799	847.88
566.567	796.88
567.334	762.88
568.101	723.88
568.869	676.88
569.636	635.88
570.403	595.88
571.17	570.88
571.937	542.88
572.704	514.88
573.471	481.88
574.237	448.88
575.004	432.88
575.771	398.88
576.537	374.88
577.303	351.88
578.07	336.88
578.836	311.88
579.602	300.88
580.368	282.88
581.134	268.88
581.9	248.88
582.666	242.88
583.432	226.88
584.198	212.88
584.964	202.88
585.729	196.88
586.495	184.88
587.26	169.88
588.025	166.88
588.791	155.88
589.556	150.88
590.321	141.88
591.086	140.88
591.851	126.88
592.616	122.88
593.381	117.88
594.146	109.88
594.911	105.88
595.675	105.88
596.44	94.88
597.204	94.88
597.969	90.88
598.733	83.88
599.497	82.88
600.261	75.88
601.025	71.88
601.79	70.88
602.553	70.88
603.317	63.88
604.081	61.88
604.845	59.88
605.609	55.88
606.372	58.88
607.136	52.88
607.899	50.88
608.662	48.88
609.426	47.88
610.189	47.88
610.952	40.88
611.715	43.88
612.478	39.88
613.241	38.88
614.004	40.88
614.767	33.88
615.529	37.88
616.292	33.88
617.055	32.88
617.817	33.88
618.579	29.88
619.342	28.88
620.104	28.88
620.866	29.88
621.628	28.88
622.39	27.88
623.152	20.88
623.914	25.88
624.676	25.88
625.438	23.88
626.199	24.88
626.961	19.88
627.722	20.88
628.484	20.88
629.245	20.88
630.006	19.88
630.768	19.88
631.529	19.88
632.29	18.88
633.051	19.88
633.812	16.88
634.573	15.88
635.333	15.88
636.094	14.88
636.855	14.88
637.615	13.88
638.376	12.88
639.136	14.88
639.896	11.88
640.657	13.88
641.417	12.88
642.177	12.88
642.937	12.88
643.697	12.88
644.457	12.88
645.216	12.88
645.976	11.88
646.736	12.88
647.495	10.88
648.255	12.88
649.014	11.88
649.774	7.88
650.533	10.88
651.292	10.88
652.051	10.88
652.81	9.88
653.569	13.88
654.328	7.88
655.087	10.88
655.846	8.88
656.604	7.88
657.363	8.88
658.121	7.88
658.88	8.88
659.638	8.88
660.397	6.88
661.155	9.88
661.913	6.88
662.671	7.88
663.429	8.88
664.187	8.88
664.945	9.88
665.703	6.88
666.46	8.88
667.218	5.88
667.976	6.88
668.733	8.88
669.49	7.88
670.248	9.88
671.005	3.88
671.762	7.88
672.519	5.88
673.276	5.88
674.033	9.88
674.79	4.88
675.547	7.88
676.304	5.88
677.06	7.88
677.817	4.88
678.574	6.88
679.33	4.88
680.086	8.88
680.843	7.88
681.599	7.88
682.355	7.88
683.111	5.88
683.867	2.88
684.623	5.88
685.379	2.88
686.135	5.88
686.89	7.88
687.646	6.88
688.402	6.88
689.157	3.88
689.912	5.88
690.668	5.88
691.423	3.88
692.178	7.88
692.933	3.88
693.688	3.88
694.443	5.88
695.198	5.88
695.953	6.88
696.708	6.88
697.462	5.88
698.217	6.88
698.972	4.88
699.726	5.88
700.48	5.88
701.235	2.88
701.989	5.88
702.743	6.88
703.497	4.88
704.251	3.88
705.005	5.88
705.759	2.88
706.513	5.88
707.266	4.88
708.02	4.88
708.774	5.88
709.527	5.88
710.28	4.88
711.034	7.88
711.787	5.88
712.54	5.88
713.293	6.88
714.046	6.88
714.799	4.88
715.552	5.88
716.305	7.88
717.058	5.88
717.81	6.88
718.563	7.88
719.315	2.88
720.068	5.88
720.82	5.88
721.573	3.88
722.325	4.88
723.077	5.88
723.829	7.88
724.581	6.88
725.333	4.88
726.085	5.88
726.836	4.88
727.588	5.88
728.34	4.88
729.091	6.88
729.843	6.88
730.594	6.88
731.346	5.88
732.097	5.88
732.848	7.88
733.599	8.88
734.35	8.88
735.101	4.88
735.852	5.88
736.603	7.88
737.354	7.88
738.104	6.88
738.855	6.88
739.605	5.88
740.356	8.88
741.106	6.88
741.856	5.88
742.607	8.88
743.357	8.88
744.107	7.88
744.857	10.88
745.607	8.88
746.357	8.88
747.106	8.88
747.856	7.88
748.606	6.88
749.355	6.88
750.105	7.88
750.854	9.88
751.603	8.88
752.353	7.88
753.102	6.88
753.851	6.88
754.6	8.88
755.349	8.88
756.098	9.88
756.847	9.88
757.595	7.88
758.344	8.88
759.093	10.88
759.841	9.88
760.589	9.88
761.338	10.88
762.086	10.88
762.834	8.88
763.582	9.88
764.331	10.88
765.079	10.88
765.826	9.88
766.574	8.88
767.322	10.88
768.07	12.88
768.817	12.88
769.565	12.88
770.312	12.88
771.06	10.88
771.807	13.88
772.554	9.88
773.302	13.88
774.049	10.88
774.796	11.88
775.543	9.88
776.29	13.88
777.036	10.88
777.783	10.88
778.53	10.88
779.276	9.88
780.023	11.88
780.769	10.88
781.516	13.88
782.262	11.88
783.008	12.88
783.754	13.88
784.5	13.88
785.246	11.88
785.992	9.88
786.738	13.88
787.484	10.88
788.23	11.88
788.975	11.88
789.721	11.88
790.466	12.88
791.212	12.88
791.957	12.88
792.702	13.88
793.447	9.88
794.193	11.88
794.938	11.88
795.683	10.88
796.427	13.88
797.172	11.88
797.917	10.88
798.662	12.88
799.406	10.88
800.151	7.88
800.895	10.88
801.64	10.88
802.384	7.88
803.128	11.88
803.872	7.88
804.616	11.88
805.36	8.88
806.104	9.88
806.848	6.88
807.592	9.88
808.336	8.88
809.079	8.88
809.823	8.88
810.566	6.88
811.31	7.88
812.053	9.88
812.796	6.88
813.539	10.88
814.283	7.88
815.026	8.88
815.769	7.88
816.511	8.88
817.254	7.88
817.997	6.88
818.74	9.88
819.482	4.88
820.225	6.88
820.967	6.88
821.71	6.88
822.452	4.88
823.194	7.88
823.936	4.88
824.678	4.88
825.42	4.88
826.162	6.88
826.904	4.88
827.646	7.88
828.388	5.88
829.129	5.88
829.871	5.88
830.612	4.88
831.354	4.88
832.095	3.88
832.836	5.88
833.577	4.88
834.319	6.88
835.06	4.88
835.801	5.88
836.542	4.88
837.282	5.88
838.023	5.88
838.764	3.88
839.504	4.88
840.245	3.88
840.985	4.88
841.726	3.88
842.466	4.88
843.206	2.88
843.946	5.88
844.687	6.88
845.427	4.88
846.166	1.88
846.906	4.88
847.646	2.88
848.386	3.88
849.125	4.88
849.865	1.88
850.605	5.88
851.344	2.88
852.083	3.88
852.823	4.88
853.562	5.88
854.301	2.88
855.04	3.88
855.779	1.88
856.518	2.88
857.257	2.88
857.995	1.88
858.734	3.88
859.473	0.88
860.211	5.88
860.95	-1.12
861.688	1.88
862.426	2.88
863.165	3.88
863.903	2.88
864.641	1.88
865.379	3.88
866.117	2.88
866.855	2.88
867.593	3.88
868.33	1.88
869.068	2.88
869.806	0.88
870.543	2.88
871.28	2.88
872.018	1.88
872.755	3.88
873.492	-1.12
874.229	1.88
874.967	1.88
875.703	2.88
876.44	1.88
877.177	1.88
877.914	-0.12
878.651	1.88
879.387	2.88
880.124	0.88
880.86	2.88
881.597	1.88
882.333	-0.12
883.069	2.88
883.806	1.88
884.542	2.88
885.278	-0.12
886.014	2.88
886.749	1.88
887.485	0.88
888.221	1.88
888.957	2.88
889.692	2.88
890.428	1.88
891.163	0.88
891.899	2.88
892.634	-1.12
893.369	3.88
894.104	2.88
894.839	2.88
895.574	2.88
896.309	1.88
897.044	0.88
897.779	-1.12
898.514	2.88
899.248	2.88
899.983	-0.12
900.717	2.88
901.452	-0.12
902.186	1.88
902.92	0.88
903.654	2.88
904.389	-0.12
905.123	-0.12
905.857	1.88
906.59	0.88
907.324	2.88
908.058	-1.12
908.792	0.88
909.525	2.88
910.259	-0.12
910.992	2.88
911.726	2.88
912.459	1.88
913.192	0.88
913.925	-0.12
914.658	2.88
915.391	-0.12
916.124	0.88
916.857	1.88
917.59	-1.12
918.323	1.88
919.055	1.88
919.788	1.88
920.521	1.88
921.253	1.88
921.985	-0.12
922.718	0.88
923.45	1.88
924.182	-2.12
924.914	1.88
925.646	0.88
926.378	1.88
927.11	1.88
927.841	0.88
928.573	2.88
929.305	1.88
930.036	2.88
930.768	0.88
931.499	0.88
932.23	-0.12
932.962	-0.12
933.693	2.88
934.424	0.88
935.155	1.88
935.886	1.88
936.617	-0.12
937.348	-0.12
938.078	1.88
938.809	2.88
939.54	-0.12
940.27	0.88
941.001	0.88
941.731	-0.12
942.461	2.88
943.191	2.88
943.922	0.88
944.652	-0.12
945.382	-0.12
946.112	-0.12
946.841	1.88
947.571	0.88
948.301	0.88
949.031	1.88
949.76	0.88
950.49	0.88
951.219	-0.12
951.948	-0.12
952.678	1.88
953.407	0.88
954.136	0.88
954.865	0.88
955.594	1.88
956.323	2.88
957.052	-0.12
957.78	1.88
958.509	0.88
959.238	0.88
959.966	1.88
960.695	-0.12
961.423	2.88
962.151	0.88
962.88	0.88
963.608	-1.12
964.336	-0.12
965.064	0.88
965.792	0.88
966.52	-0.12
967.247	2.88
967.975	-1.12
968.703	2.88
969.43	0.88
970.158	2.88
970.885	1.88
971.613	0.88
972.34	-0.12
973.067	0.88
973.794	-0.12
974.521	2.88
975.248	-2.12
975.975	0.88
976.702	0.88
977.429	0.88
978.156	-1.12
978.882	0.88
979.609	1.88
980.335	-0.12
981.062	1.88
981.788	-0.12
982.514	-0.12
983.24	-0.12
983.967	-2.12
984.693	-0.12
985.419	-0.12
986.144	0.88
986.87	0.88
987.596	2.88
988.322	0.88
989.047	0.88
989.773	1.88
990.498	1.88
991.224	2.88
991.949	0.88
992.674	1.88
993.399	2.88
994.124	1.88
994.849	1.88
995.574	1.88
996.299	-1.12
997.024	1.88
997.749	0.88
998.473	1.88
999.198	-0.12
999.922	1.88
1000.647	-0.12
1001.371	4.88
1002.095	-0.12
1002.82	0.88
1003.544	-3.12
1004.268	1.88
1004.992	5.88
1005.716	2.88
1006.439	2.88
1007.163	1.88
1007.887	2.88
1008.611	-1.12
1009.334	1.88
1010.058	0.88
1010.781	1.88
1011.504	-1.12
1012.228	1.88
1012.951	-2.12
1013.674	-1.12
1014.397	0.88
1015.12	-0.12
