节点500_425_QEPB04081__260__15-52-37-984.txt的数据

Date: Wed Nov 12 15:52:37 CST 2025
User: PC
Spectrometer: QEPB0408
触发模式: 0
积分时间 (秒): 1.000000E-2
Scans to average: 1
启用暗噪声校正: true
启用非线性校正: false
滑动平均宽度: 0
X轴模式: Wavelengths
Number of Pixels in Spectrum: 1044
>>>>>Begin Spectral Data<<<<<
220.843	0.75
221.644	2.75
222.444	1.75
223.244	0.75
224.045	1.75
224.845	3.75
225.645	4.75
226.445	2.75
227.245	3.75
228.045	2.75
228.845	3.75
229.645	3.75
230.444	1.75
231.244	3.75
232.043	4.75
232.843	3.75
233.642	6.75
234.442	4.75
235.241	6.75
236.04	2.75
236.839	4.75
237.638	5.75
238.437	4.75
239.236	4.75
240.035	6.75
240.833	5.75
241.632	8.75
242.43	6.75
243.229	7.75
244.027	4.75
244.826	8.75
245.624	8.75
246.422	8.75
247.22	6.75
248.018	8.75
248.816	7.75
249.614	7.75
250.412	7.75
251.21	8.75
252.007	8.75
252.805	11.75
253.602	9.75
254.4	10.75
255.197	11.75
255.994	10.75
256.791	10.75
257.589	9.75
258.386	13.75
259.183	13.75
259.979	13.75
260.776	14.75
261.573	16.75
262.37	15.75
263.166	16.75
263.963	14.75
264.759	15.75
265.556	16.75
266.352	17.75
267.148	16.75
267.944	18.75
268.74	21.75
269.536	20.75
270.332	19.75
271.128	23.75
271.924	22.75
272.719	19.75
273.515	21.75
274.311	25.75
275.106	18.75
275.901	21.75
276.697	22.75
277.492	23.75
278.287	24.75
279.082	25.75
279.877	25.75
280.672	23.75
281.467	25.75
282.262	21.75
283.056	23.75
283.851	23.75
284.646	25.75
285.44	22.75
286.234	24.75
287.029	25.75
287.823	24.75
288.617	24.75
289.411	24.75
290.205	21.75
290.999	22.75
291.793	22.75
292.587	21.75
293.381	23.75
294.174	19.75
294.968	23.75
295.761	16.75
296.555	21.75
297.348	17.75
298.141	19.75
298.935	22.75
299.728	17.75
300.521	17.75
301.314	16.75
302.107	16.75
302.899	14.75
303.692	15.75
304.485	15.75
305.277	15.75
306.07	15.75
306.862	17.75
307.655	15.75
308.447	13.75
309.239	13.75
310.031	14.75
310.823	12.75
311.615	14.75
312.407	13.75
313.199	15.75
313.991	12.75
314.783	10.75
315.574	12.75
316.366	9.75
317.157	8.75
317.949	8.75
318.74	10.75
319.531	9.75
320.322	13.75
321.113	11.75
321.904	9.75
322.695	9.75
323.486	9.75
324.277	7.75
325.068	9.75
325.858	8.75
326.649	8.75
327.439	8.75
328.23	7.75
329.02	8.75
329.81	9.75
330.6	8.75
331.391	8.75
332.181	8.75
332.971	7.75
333.76	6.75
334.55	9.75
335.34	5.75
336.13	9.75
336.919	9.75
337.709	6.75
338.498	9.75
339.287	8.75
340.077	7.75
340.866	5.75
341.655	9.75
342.444	7.75
343.233	7.75
344.022	5.75
344.811	6.75
345.6	7.75
346.388	7.75
347.177	7.75
347.965	7.75
348.754	5.75
349.542	7.75
350.33	7.75
351.119	5.75
351.907	6.75
352.695	5.75
353.483	8.75
354.271	6.75
355.059	5.75
355.846	7.75
356.634	6.75
357.422	6.75
358.209	5.75
358.997	6.75
359.784	6.75
360.571	7.75
361.359	6.75
362.146	6.75
362.933	8.75
363.72	6.75
364.507	6.75
365.294	4.75
366.081	5.75
366.867	7.75
367.654	4.75
368.44	5.75
369.227	7.75
370.013	6.75
370.8	7.75
371.586	6.75
372.372	5.75
373.158	5.75
373.944	6.75
374.73	8.75
375.516	2.75
376.302	7.75
377.088	6.75
377.873	5.75
378.659	4.75
379.445	6.75
380.23	5.75
381.015	4.75
381.801	6.75
382.586	5.75
383.371	6.75
384.156	6.75
384.941	7.75
385.726	7.75
386.511	5.75
387.296	7.75
388.08	6.75
388.865	7.75
389.649	9.75
390.434	6.75
391.218	8.75
392.003	5.75
392.787	6.75
393.571	6.75
394.355	6.75
395.139	8.75
395.923	8.75
396.707	9.75
397.491	7.75
398.274	9.75
399.058	6.75
399.842	6.75
400.625	8.75
401.408	8.75
402.192	7.75
402.975	9.75
403.758	10.75
404.541	10.75
405.324	9.75
406.107	9.75
406.89	9.75
407.673	11.75
408.456	9.75
409.238	8.75
410.021	10.75
410.803	10.75
411.586	10.75
412.368	11.75
413.151	10.75
413.933	12.75
414.715	8.75
415.497	10.75
416.279	11.75
417.061	13.75
417.843	12.75
418.624	12.75
419.406	14.75
420.188	14.75
420.969	12.75
421.751	16.75
422.532	16.75
423.313	13.75
424.095	14.75
424.876	14.75
425.657	14.75
426.438	15.75
427.219	15.75
428	15.75
428.78	17.75
429.561	18.75
430.342	20.75
431.122	21.75
431.903	17.75
432.683	21.75
433.464	22.75
434.244	25.75
435.024	23.75
435.804	25.75
436.584	26.75
437.364	26.75
438.144	26.75
438.924	27.75
439.704	29.75
440.483	30.75
441.263	30.75
442.042	34.75
442.822	36.75
443.601	41.75
444.38	45.75
445.16	47.75
445.939	52.75
446.718	56.75
447.497	55.75
448.276	63.75
449.054	73.75
449.833	71.75
450.612	82.75
451.391	90.75
452.169	100.75
452.948	113.75
453.726	122.75
454.504	131.75
455.282	149.75
456.061	164.75
456.839	187.75
457.617	203.75
458.395	227.75
459.172	253.75
459.95	287.75
460.728	317.75
461.506	352.75
462.283	400.75
463.061	445.75
463.838	503.75
464.615	547.75
465.393	606.75
466.17	689.75
466.947	756.75
467.724	838.75
468.501	944.75
469.278	1053.75
470.055	1172.75
470.831	1296.75
471.608	1446.75
472.385	1589.75
473.161	1752.75
473.938	1939.75
474.714	2167.75
475.49	2370.75
476.266	2620.75
477.043	2907.75
477.819	3176.75
478.595	3513.75
479.371	3853.75
480.146	4245.75
480.922	4658.75
481.698	5110.75
482.473	5583.75
483.249	6147.75
484.024	6766.75
484.8	7359.75
485.575	8063.75
486.35	8795.75
487.126	9596.75
487.901	10517.75
488.676	11384.75
489.451	12416.75
490.225	13534.75
491	14662.75
491.775	15896.75
492.55	17149.75
493.324	18458.75
494.099	19745.75
494.873	21138.75
495.647	22586.75
496.422	24079.75
497.196	25485.75
497.97	27009.75
498.744	28427.75
499.518	29769.75
500.292	31032.75
501.066	32139.75
501.839	33258.75
502.613	34190.75
503.387	34811.75
504.16	35325.75
504.934	35577.75
505.707	35650.75
506.48	35472.75
507.253	35127.75
508.027	34728.75
508.8	34166.75
509.573	33404.75
510.346	32573.75
511.118	31655.75
511.891	30554.75
512.664	29450.75
513.437	28228.75
514.209	27092.75
514.982	26124.75
515.754	25070.75
516.526	23934.75
517.298	22954.75
518.071	21974.75
518.843	21091.75
519.615	20220.75
520.387	19381.75
521.159	18667.75
521.93	17950.75
522.702	17196.75
523.474	16551.75
524.245	15864.75
525.017	15159.75
525.788	14428.75
526.56	13761.75
527.331	13172.75
528.102	12584.75
528.873	11951.75
529.644	11404.75
530.415	10837.75
531.186	10323.75
531.957	9786.75
532.728	9239.75
533.498	8753.75
534.269	8277.75
535.039	7806.75
535.81	7377.75
536.58	6956.75
537.351	6582.75
538.121	6233.75
538.891	5893.75
539.661	5585.75
540.431	5323.75
541.201	5014.75
541.971	4757.75
542.741	4476.75
543.51	4264.75
544.28	4091.75
545.05	3828.75
545.819	3682.75
546.588	3501.75
547.358	3312.75
548.127	3130.75
548.896	2987.75
549.665	2806.75
550.434	2702.75
551.203	2570.75
551.972	2397.75
552.741	2259.75
553.51	2150.75
554.278	2016.75
555.047	1902.75
555.815	1804.75
556.584	1699.75
557.352	1603.75
558.121	1513.75
558.889	1429.75
559.657	1342.75
560.425	1279.75
561.193	1207.75
561.961	1134.75
562.729	1087.75
563.496	1031.75
564.264	979.75
565.032	916.75
565.799	864.75
566.567	821.75
567.334	781.75
568.101	734.75
568.869	686.75
569.636	644.75
570.403	614.75
571.17	576.75
571.937	550.75
572.704	522.75
573.471	496.75
574.237	460.75
575.004	432.75
575.771	407.75
576.537	391.75
577.303	368.75
578.07	337.75
578.836	320.75
579.602	300.75
580.368	284.75
581.134	277.75
581.9	257.75
582.666	242.75
583.432	233.75
584.198	220.75
584.964	209.75
585.729	201.75
586.495	192.75
587.26	183.75
588.025	170.75
588.791	163.75
589.556	154.75
590.321	143.75
591.086	137.75
591.851	129.75
592.616	123.75
593.381	116.75
594.146	116.75
594.911	109.75
595.675	100.75
596.44	95.75
597.204	88.75
597.969	88.75
598.733	87.75
599.497	79.75
600.261	76.75
601.025	76.75
601.79	70.75
602.553	67.75
603.317	68.75
604.081	61.75
604.845	54.75
605.609	57.75
606.372	56.75
607.136	53.75
607.899	52.75
608.662	47.75
609.426	48.75
610.189	48.75
610.952	44.75
611.715	42.75
612.478	41.75
613.241	37.75
614.004	36.75
614.767	36.75
615.529	34.75
616.292	31.75
617.055	31.75
617.817	28.75
618.579	32.75
619.342	32.75
620.104	28.75
620.866	25.75
621.628	25.75
622.39	24.75
623.152	23.75
623.914	22.75
624.676	21.75
625.438	24.75
626.199	20.75
626.961	19.75
627.722	21.75
628.484	17.75
629.245	19.75
630.006	18.75
630.768	16.75
631.529	16.75
632.29	17.75
633.051	17.75
633.812	14.75
634.573	16.75
635.333	13.75
636.094	14.75
636.855	13.75
637.615	13.75
638.376	13.75
639.136	10.75
639.896	12.75
640.657	11.75
641.417	12.75
642.177	11.75
642.937	9.75
643.697	10.75
644.457	11.75
645.216	11.75
645.976	11.75
646.736	10.75
647.495	11.75
648.255	9.75
649.014	7.75
649.774	5.75
650.533	9.75
651.292	9.75
652.051	9.75
652.81	8.75
653.569	7.75
654.328	8.75
655.087	10.75
655.846	4.75
656.604	7.75
657.363	7.75
658.121	7.75
658.88	6.75
659.638	7.75
660.397	8.75
661.155	3.75
661.913	8.75
662.671	4.75
663.429	7.75
664.187	7.75
664.945	4.75
665.703	6.75
666.46	4.75
667.218	5.75
667.976	7.75
668.733	6.75
669.49	4.75
670.248	6.75
671.005	5.75
671.762	5.75
672.519	5.75
673.276	5.75
674.033	6.75
674.79	6.75
675.547	2.75
676.304	5.75
677.06	4.75
677.817	5.75
678.574	5.75
679.33	4.75
680.086	6.75
680.843	3.75
681.599	6.75
682.355	4.75
683.111	4.75
683.867	6.75
684.623	3.75
685.379	5.75
686.135	6.75
686.89	4.75
687.646	1.75
688.402	6.75
689.157	3.75
689.912	1.75
690.668	4.75
691.423	1.75
692.178	3.75
692.933	2.75
693.688	2.75
694.443	5.75
695.198	4.75
695.953	5.75
696.708	3.75
697.462	3.75
698.217	3.75
698.972	3.75
699.726	3.75
700.48	4.75
701.235	3.75
701.989	3.75
702.743	4.75
703.497	3.75
704.251	3.75
705.005	7.75
705.759	3.75
706.513	3.75
707.266	4.75
708.02	3.75
708.774	2.75
709.527	4.75
710.28	2.75
711.034	3.75
711.787	4.75
712.54	2.75
713.293	6.75
714.046	5.75
714.799	4.75
715.552	3.75
716.305	5.75
717.058	2.75
717.81	4.75
718.563	4.75
719.315	5.75
720.068	3.75
720.82	3.75
721.573	3.75
722.325	6.75
723.077	4.75
723.829	5.75
724.581	6.75
725.333	3.75
726.085	3.75
726.836	4.75
727.588	3.75
728.34	3.75
729.091	7.75
729.843	4.75
730.594	4.75
731.346	3.75
732.097	6.75
732.848	5.75
733.599	6.75
734.35	4.75
735.101	4.75
735.852	6.75
736.603	3.75
737.354	6.75
738.104	6.75
738.855	5.75
739.605	5.75
740.356	4.75
741.106	4.75
741.856	4.75
742.607	3.75
743.357	5.75
744.107	5.75
744.857	5.75
745.607	6.75
746.357	6.75
747.106	4.75
747.856	4.75
748.606	7.75
749.355	6.75
750.105	6.75
750.854	6.75
751.603	7.75
752.353	7.75
753.102	6.75
753.851	9.75
754.6	9.75
755.349	7.75
756.098	6.75
756.847	7.75
757.595	7.75
758.344	5.75
759.093	7.75
759.841	8.75
760.589	6.75
761.338	8.75
762.086	8.75
762.834	8.75
763.582	7.75
764.331	7.75
765.079	8.75
765.826	7.75
766.574	9.75
767.322	8.75
768.07	11.75
768.817	10.75
769.565	9.75
770.312	8.75
771.06	5.75
771.807	9.75
772.554	9.75
773.302	8.75
774.049	10.75
774.796	8.75
775.543	10.75
776.29	11.75
777.036	12.75
777.783	10.75
778.53	8.75
779.276	9.75
780.023	13.75
780.769	12.75
781.516	9.75
782.262	10.75
783.008	11.75
783.754	11.75
784.5	10.75
785.246	9.75
785.992	11.75
786.738	11.75
787.484	11.75
788.23	13.75
788.975	11.75
789.721	12.75
790.466	9.75
791.212	12.75
791.957	10.75
792.702	10.75
793.447	8.75
794.193	9.75
794.938	9.75
795.683	8.75
796.427	8.75
797.172	9.75
797.917	9.75
798.662	11.75
799.406	7.75
800.151	7.75
800.895	9.75
801.64	6.75
802.384	7.75
803.128	5.75
803.872	7.75
804.616	7.75
805.36	9.75
806.104	6.75
806.848	5.75
807.592	7.75
808.336	6.75
809.079	7.75
809.823	5.75
810.566	4.75
811.31	3.75
812.053	7.75
812.796	7.75
813.539	5.75
814.283	6.75
815.026	5.75
815.769	3.75
816.511	5.75
817.254	6.75
817.997	7.75
818.74	5.75
819.482	4.75
820.225	5.75
820.967	3.75
821.71	4.75
822.452	4.75
823.194	5.75
823.936	5.75
824.678	5.75
825.42	3.75
826.162	4.75
826.904	6.75
827.646	6.75
828.388	3.75
829.129	5.75
829.871	2.75
830.612	2.75
831.354	3.75
832.095	4.75
832.836	5.75
833.577	4.75
834.319	3.75
835.06	2.75
835.801	3.75
836.542	6.75
837.282	1.75
838.023	4.75
838.764	3.75
839.504	3.75
840.245	2.75
840.985	4.75
841.726	2.75
842.466	1.75
843.206	1.75
843.946	3.75
844.687	1.75
845.427	2.75
846.166	3.75
846.906	2.75
847.646	1.75
848.386	1.75
849.125	2.75
849.865	3.75
850.605	2.75
851.344	4.75
852.083	6.75
852.823	0.75
853.562	2.75
854.301	0.75
855.04	2.75
855.779	2.75
856.518	3.75
857.257	2.75
857.995	2.75
858.734	3.75
859.473	0.75
860.211	1.75
860.95	4.75
861.688	0.75
862.426	2.75
863.165	1.75
863.903	0.75
864.641	2.75
865.379	0.75
866.117	0.75
866.855	0.75
867.593	4.75
868.33	0.75
869.068	0.75
869.806	2.75
870.543	-1.25
871.28	-0.25
872.018	-0.25
872.755	3.75
873.492	0.75
874.229	2.75
874.967	0.75
875.703	-0.25
876.44	2.75
877.177	-0.25
877.914	-0.25
878.651	0.75
879.387	-0.25
880.124	1.75
880.86	0.75
881.597	0.75
882.333	1.75
883.069	-0.25
883.806	0.75
884.542	-2.25
885.278	1.75
886.014	0.75
886.749	1.75
887.485	0.75
888.221	-1.25
888.957	1.75
889.692	-0.25
890.428	0.75
891.163	1.75
891.899	-1.25
892.634	-3.25
893.369	-1.25
894.104	-0.25
894.839	0.75
895.574	-0.25
896.309	1.75
897.044	-1.25
897.779	-0.25
898.514	-0.25
899.248	-0.25
899.983	0.75
900.717	-0.25
901.452	0.75
902.186	-1.25
902.92	1.75
903.654	-2.25
904.389	1.75
905.123	-0.25
905.857	1.75
906.59	0.75
907.324	-2.25
908.058	0.75
908.792	-0.25
909.525	-0.25
910.259	-0.25
910.992	-0.25
911.726	0.75
912.459	-1.25
913.192	-1.25
913.925	-0.25
914.658	-1.25
915.391	1.75
916.124	-1.25
916.857	-1.25
917.59	-0.25
918.323	0.75
919.055	-0.25
919.788	-1.25
920.521	-0.25
921.253	-0.25
921.985	0.75
922.718	-0.25
923.45	0.75
924.182	1.75
924.914	-0.25
925.646	0.75
926.378	-0.25
927.11	-0.25
927.841	0.75
928.573	-0.25
929.305	0.75
930.036	-0.25
930.768	-0.25
931.499	-0.25
932.23	-3.25
932.962	0.75
933.693	-2.25
934.424	-0.25
935.155	-0.25
935.886	-0.25
936.617	-0.25
937.348	-1.25
938.078	-1.25
938.809	-1.25
939.54	1.75
940.27	-2.25
941.001	-2.25
941.731	-0.25
942.461	-0.25
943.191	-1.25
943.922	-1.25
944.652	1.75
945.382	1.75
946.112	-1.25
946.841	0.75
947.571	-2.25
948.301	-2.25
949.031	-0.25
949.76	-1.25
950.49	-0.25
951.219	-0.25
951.948	-2.25
952.678	-2.25
953.407	-2.25
954.136	-0.25
954.865	0.75
955.594	1.75
956.323	-2.25
957.052	-0.25
957.78	-0.25
958.509	-1.25
959.238	1.75
959.966	-1.25
960.695	-2.25
961.423	-0.25
962.151	-0.25
962.88	-1.25
963.608	-1.25
964.336	0.75
965.064	-0.25
965.792	-2.25
966.52	-0.25
967.247	0.75
967.975	1.75
968.703	0.75
969.43	1.75
970.158	1.75
970.885	-2.25
971.613	-0.25
972.34	-2.25
973.067	-1.25
973.794	-0.25
974.521	-0.25
975.248	-0.25
975.975	-0.25
976.702	0.75
977.429	-0.25
978.156	0.75
978.882	-1.25
979.609	0.75
980.335	-0.25
981.062	-0.25
981.788	-1.25
982.514	-0.25
983.24	-0.25
983.967	-0.25
984.693	-2.25
985.419	-1.25
986.144	-2.25
986.87	-0.25
987.596	0.75
988.322	-0.25
989.047	-1.25
989.773	-2.25
990.498	1.75
991.224	0.75
991.949	-0.25
992.674	0.75
993.399	0.75
994.124	-0.25
994.849	-1.25
995.574	-0.25
996.299	-0.25
997.024	-1.25
997.749	1.75
998.473	-0.25
999.198	-0.25
999.922	-0.25
1000.647	-1.25
1001.371	5.75
1002.095	-0.25
1002.82	-2.25
1003.544	-1.25
1004.268	4.75
1004.992	0.75
1005.716	2.75
1006.439	1.75
1007.163	1.75
1007.887	1.75
1008.611	-0.25
1009.334	-1.25
1010.058	-0.25
1010.781	-0.25
1011.504	-0.25
1012.228	-0.25
1012.951	-0.25
1013.674	-0.25
1014.397	-1.25
1015.12	-0.25
