节点500_425_QEPB04081__53__15-49-11-397.txt的数据

Date: Wed Nov 12 15:49:11 CST 2025
User: PC
Spectrometer: QEPB0408
触发模式: 0
积分时间 (秒): 1.000000E-2
Scans to average: 1
启用暗噪声校正: true
启用非线性校正: false
滑动平均宽度: 0
X轴模式: Wavelengths
Number of Pixels in Spectrum: 1044
>>>>>Begin Spectral Data<<<<<
220.843	2.38
221.644	4.38
222.444	2.38
223.244	0.38
224.045	6.38
224.845	3.38
225.645	5.38
226.445	3.38
227.245	2.38
228.045	6.38
228.845	5.38
229.645	5.38
230.444	4.38
231.244	5.38
232.043	7.38
232.843	7.38
233.642	5.38
234.442	5.38
235.241	4.38
236.04	8.38
236.839	4.38
237.638	7.38
238.437	5.38
239.236	7.38
240.035	7.38
240.833	6.38
241.632	7.38
242.43	6.38
243.229	9.38
244.027	7.38
244.826	8.38
245.624	8.38
246.422	8.38
247.22	10.38
248.018	9.38
248.816	8.38
249.614	12.38
250.412	11.38
251.21	11.38
252.007	10.38
252.805	10.38
253.602	10.38
254.4	12.38
255.197	10.38
255.994	11.38
256.791	14.38
257.589	14.38
258.386	16.38
259.183	13.38
259.979	18.38
260.776	14.38
261.573	16.38
262.37	17.38
263.166	15.38
263.963	21.38
264.759	18.38
265.556	20.38
266.352	21.38
267.148	18.38
267.944	19.38
268.74	23.38
269.536	21.38
270.332	21.38
271.128	24.38
271.924	24.38
272.719	22.38
273.515	28.38
274.311	25.38
275.106	26.38
275.901	23.38
276.697	22.38
277.492	26.38
278.287	25.38
279.082	25.38
279.877	30.38
280.672	26.38
281.467	25.38
282.262	26.38
283.056	25.38
283.851	28.38
284.646	28.38
285.44	26.38
286.234	22.38
287.029	28.38
287.823	24.38
288.617	24.38
289.411	24.38
290.205	25.38
290.999	26.38
291.793	25.38
292.587	24.38
293.381	23.38
294.174	23.38
294.968	21.38
295.761	19.38
296.555	20.38
297.348	18.38
298.141	21.38
298.935	20.38
299.728	18.38
300.521	19.38
301.314	16.38
302.107	16.38
302.899	16.38
303.692	17.38
304.485	13.38
305.277	18.38
306.07	16.38
306.862	15.38
307.655	17.38
308.447	16.38
309.239	13.38
310.031	14.38
310.823	12.38
311.615	14.38
312.407	12.38
313.199	12.38
313.991	13.38
314.783	11.38
315.574	13.38
316.366	10.38
317.157	13.38
317.949	10.38
318.74	10.38
319.531	11.38
320.322	9.38
321.113	9.38
321.904	9.38
322.695	11.38
323.486	9.38
324.277	8.38
325.068	10.38
325.858	9.38
326.649	8.38
327.439	8.38
328.23	8.38
329.02	10.38
329.81	8.38
330.6	10.38
331.391	8.38
332.181	10.38
332.971	9.38
333.76	8.38
334.55	10.38
335.34	7.38
336.13	9.38
336.919	11.38
337.709	8.38
338.498	8.38
339.287	7.38
340.077	11.38
340.866	9.38
341.655	9.38
342.444	8.38
343.233	8.38
344.022	9.38
344.811	10.38
345.6	8.38
346.388	8.38
347.177	7.38
347.965	9.38
348.754	9.38
349.542	8.38
350.33	9.38
351.119	8.38
351.907	9.38
352.695	8.38
353.483	8.38
354.271	6.38
355.059	9.38
355.846	8.38
356.634	8.38
357.422	8.38
358.209	5.38
358.997	8.38
359.784	6.38
360.571	7.38
361.359	8.38
362.146	7.38
362.933	8.38
363.72	7.38
364.507	7.38
365.294	7.38
366.081	7.38
366.867	8.38
367.654	8.38
368.44	6.38
369.227	8.38
370.013	7.38
370.8	6.38
371.586	8.38
372.372	5.38
373.158	8.38
373.944	8.38
374.73	5.38
375.516	5.38
376.302	10.38
377.088	7.38
377.873	6.38
378.659	6.38
379.445	8.38
380.23	6.38
381.015	6.38
381.801	6.38
382.586	9.38
383.371	8.38
384.156	6.38
384.941	6.38
385.726	10.38
386.511	6.38
387.296	7.38
388.08	7.38
388.865	9.38
389.649	7.38
390.434	8.38
391.218	6.38
392.003	6.38
392.787	9.38
393.571	6.38
394.355	10.38
395.139	11.38
395.923	7.38
396.707	8.38
397.491	9.38
398.274	9.38
399.058	9.38
399.842	7.38
400.625	8.38
401.408	11.38
402.192	7.38
402.975	8.38
403.758	9.38
404.541	11.38
405.324	10.38
406.107	9.38
406.89	9.38
407.673	12.38
408.456	10.38
409.238	12.38
410.021	11.38
410.803	11.38
411.586	11.38
412.368	10.38
413.151	13.38
413.933	13.38
414.715	12.38
415.497	12.38
416.279	10.38
417.061	13.38
417.843	14.38
418.624	12.38
419.406	13.38
420.188	14.38
420.969	13.38
421.751	13.38
422.532	14.38
423.313	13.38
424.095	15.38
424.876	16.38
425.657	18.38
426.438	19.38
427.219	16.38
428	20.38
428.78	21.38
429.561	20.38
430.342	19.38
431.122	20.38
431.903	22.38
432.683	19.38
433.464	21.38
434.244	22.38
435.024	24.38
435.804	25.38
436.584	27.38
437.364	29.38
438.144	32.38
438.924	32.38
439.704	30.38
440.483	32.38
441.263	34.38
442.042	37.38
442.822	38.38
443.601	42.38
444.38	43.38
445.16	46.38
445.939	50.38
446.718	55.38
447.497	62.38
448.276	64.38
449.054	65.38
449.833	73.38
450.612	76.38
451.391	87.38
452.169	94.38
452.948	106.38
453.726	116.38
454.504	127.38
455.282	142.38
456.061	150.38
456.839	177.38
457.617	195.38
458.395	210.38
459.172	236.38
459.95	268.38
460.728	286.38
461.506	329.38
462.283	358.38
463.061	406.38
463.838	463.38
464.615	518.38
465.393	581.38
466.17	651.38
466.947	725.38
467.724	810.38
468.501	907.38
469.278	1004.38
470.055	1117.38
470.831	1236.38
471.608	1386.38
472.385	1543.38
473.161	1730.38
473.938	1915.38
474.714	2118.38
475.49	2353.38
476.266	2594.38
477.043	2888.38
477.819	3216.38
478.595	3541.38
479.371	3908.38
480.146	4332.38
480.922	4784.38
481.698	5252.38
482.473	5795.38
483.249	6401.38
484.024	7031.38
484.8	7769.38
485.575	8507.38
486.35	9370.38
487.126	10232.38
487.901	11245.38
488.676	12321.38
489.451	13444.38
490.225	14585.38
491	15952.38
491.775	17347.38
492.55	18722.38
493.324	20244.38
494.099	21768.38
494.873	23192.38
495.647	24744.38
496.422	26401.38
497.196	27935.38
497.97	29588.38
498.744	31139.38
499.518	32525.38
500.292	33797.38
501.066	34812.38
501.839	35887.38
502.613	36638.38
503.387	37240.38
504.16	37616.38
504.934	37672.38
505.707	37457.38
506.48	37093.38
507.253	36452.38
508.027	35885.38
508.8	35039.38
509.573	34080.38
510.346	32939.38
511.118	31926.38
511.891	30682.38
512.664	29486.38
513.437	28147.38
514.209	26912.38
514.982	25877.38
515.754	24716.38
516.526	23639.38
517.298	22611.38
518.071	21589.38
518.843	20734.38
519.615	19852.38
520.387	19010.38
521.159	18406.38
521.93	17691.38
522.702	16956.38
523.474	16304.38
524.245	15634.38
525.017	14824.38
525.788	14184.38
526.56	13548.38
527.331	12853.38
528.102	12228.38
528.873	11614.38
529.644	11022.38
530.415	10524.38
531.186	9961.38
531.957	9436.38
532.728	8864.38
533.498	8401.38
534.269	7888.38
535.039	7520.38
535.81	7031.38
536.58	6652.38
537.351	6272.38
538.121	5921.38
538.891	5650.38
539.661	5334.38
540.431	5054.38
541.201	4786.38
541.971	4546.38
542.741	4284.38
543.51	4083.38
544.28	3860.38
545.05	3700.38
545.819	3526.38
546.588	3358.38
547.358	3149.38
548.127	2998.38
548.896	2829.38
549.665	2701.38
550.434	2544.38
551.203	2416.38
551.972	2272.38
552.741	2162.38
553.51	2048.38
554.278	1913.38
555.047	1822.38
555.815	1716.38
556.584	1608.38
557.352	1526.38
558.121	1439.38
558.889	1362.38
559.657	1284.38
560.425	1198.38
561.193	1138.38
561.961	1095.38
562.729	1005.38
563.496	967.38
564.264	917.38
565.032	862.38
565.799	825.38
566.567	752.38
567.334	730.38
568.101	690.38
568.869	656.38
569.636	621.38
570.403	579.38
571.17	546.38
571.937	509.38
572.704	495.38
573.471	459.38
574.237	421.38
575.004	408.38
575.771	375.38
576.537	366.38
577.303	345.38
578.07	316.38
578.836	304.38
579.602	285.38
580.368	272.38
581.134	258.38
581.9	240.38
582.666	234.38
583.432	217.38
584.198	206.38
584.964	203.38
585.729	189.38
586.495	179.38
587.26	166.38
588.025	158.38
588.791	154.38
589.556	142.38
590.321	141.38
591.086	133.38
591.851	124.38
592.616	120.38
593.381	110.38
594.146	102.38
594.911	100.38
595.675	94.38
596.44	96.38
597.204	89.38
597.969	84.38
598.733	81.38
599.497	76.38
600.261	78.38
601.025	74.38
601.79	73.38
602.553	67.38
603.317	62.38
604.081	59.38
604.845	56.38
605.609	56.38
606.372	54.38
607.136	50.38
607.899	47.38
608.662	44.38
609.426	46.38
610.189	46.38
610.952	41.38
611.715	40.38
612.478	39.38
613.241	39.38
614.004	36.38
614.767	34.38
615.529	34.38
616.292	34.38
617.055	32.38
617.817	33.38
618.579	30.38
619.342	30.38
620.104	30.38
620.866	27.38
621.628	24.38
622.39	28.38
623.152	24.38
623.914	22.38
624.676	23.38
625.438	20.38
626.199	21.38
626.961	21.38
627.722	20.38
628.484	18.38
629.245	19.38
630.006	19.38
630.768	18.38
631.529	17.38
632.29	15.38
633.051	18.38
633.812	16.38
634.573	14.38
635.333	16.38
636.094	11.38
636.855	13.38
637.615	13.38
638.376	13.38
639.136	15.38
639.896	11.38
640.657	12.38
641.417	14.38
642.177	14.38
642.937	14.38
643.697	9.38
644.457	9.38
645.216	10.38
645.976	12.38
646.736	10.38
647.495	8.38
648.255	10.38
649.014	7.38
649.774	11.38
650.533	10.38
651.292	11.38
652.051	8.38
652.81	8.38
653.569	7.38
654.328	7.38
655.087	7.38
655.846	7.38
656.604	10.38
657.363	8.38
658.121	8.38
658.88	5.38
659.638	10.38
660.397	6.38
661.155	7.38
661.913	8.38
662.671	6.38
663.429	4.38
664.187	6.38
664.945	7.38
665.703	8.38
666.46	10.38
667.218	6.38
667.976	2.38
668.733	7.38
669.49	7.38
670.248	5.38
671.005	9.38
671.762	7.38
672.519	6.38
673.276	6.38
674.033	4.38
674.79	8.38
675.547	5.38
676.304	5.38
677.06	8.38
677.817	7.38
678.574	5.38
679.33	5.38
680.086	4.38
680.843	4.38
681.599	4.38
682.355	5.38
683.111	5.38
683.867	7.38
684.623	4.38
685.379	6.38
686.135	6.38
686.89	5.38
687.646	5.38
688.402	3.38
689.157	6.38
689.912	6.38
690.668	3.38
691.423	6.38
692.178	4.38
692.933	6.38
693.688	3.38
694.443	4.38
695.198	7.38
695.953	4.38
696.708	4.38
697.462	4.38
698.217	5.38
698.972	6.38
699.726	5.38
700.48	6.38
701.235	5.38
701.989	4.38
702.743	4.38
703.497	5.38
704.251	7.38
705.005	4.38
705.759	5.38
706.513	2.38
707.266	4.38
708.02	5.38
708.774	3.38
709.527	5.38
710.28	5.38
711.034	8.38
711.787	5.38
712.54	5.38
713.293	5.38
714.046	5.38
714.799	5.38
715.552	5.38
716.305	3.38
717.058	6.38
717.81	4.38
718.563	5.38
719.315	7.38
720.068	5.38
720.82	5.38
721.573	5.38
722.325	7.38
723.077	5.38
723.829	6.38
724.581	3.38
725.333	5.38
726.085	6.38
726.836	4.38
727.588	5.38
728.34	3.38
729.091	4.38
729.843	5.38
730.594	5.38
731.346	8.38
732.097	6.38
732.848	7.38
733.599	4.38
734.35	6.38
735.101	7.38
735.852	6.38
736.603	6.38
737.354	5.38
738.104	8.38
738.855	5.38
739.605	7.38
740.356	6.38
741.106	4.38
741.856	7.38
742.607	4.38
743.357	9.38
744.107	5.38
744.857	7.38
745.607	5.38
746.357	7.38
747.106	8.38
747.856	7.38
748.606	5.38
749.355	7.38
750.105	7.38
750.854	7.38
751.603	7.38
752.353	9.38
753.102	9.38
753.851	8.38
754.6	9.38
755.349	10.38
756.098	9.38
756.847	7.38
757.595	10.38
758.344	8.38
759.093	8.38
759.841	12.38
760.589	8.38
761.338	10.38
762.086	9.38
762.834	6.38
763.582	8.38
764.331	9.38
765.079	11.38
765.826	9.38
766.574	10.38
767.322	9.38
768.07	11.38
768.817	12.38
769.565	9.38
770.312	10.38
771.06	14.38
771.807	9.38
772.554	10.38
773.302	10.38
774.049	12.38
774.796	8.38
775.543	13.38
776.29	9.38
777.036	14.38
777.783	13.38
778.53	10.38
779.276	14.38
780.023	12.38
780.769	12.38
781.516	10.38
782.262	11.38
783.008	14.38
783.754	12.38
784.5	10.38
785.246	11.38
785.992	12.38
786.738	13.38
787.484	10.38
788.23	14.38
788.975	9.38
789.721	10.38
790.466	14.38
791.212	11.38
791.957	10.38
792.702	13.38
793.447	12.38
794.193	13.38
794.938	9.38
795.683	12.38
796.427	11.38
797.172	11.38
797.917	12.38
798.662	10.38
799.406	10.38
800.151	9.38
800.895	9.38
801.64	8.38
802.384	10.38
803.128	6.38
803.872	11.38
804.616	10.38
805.36	6.38
806.104	7.38
806.848	7.38
807.592	10.38
808.336	8.38
809.079	9.38
809.823	7.38
810.566	6.38
811.31	7.38
812.053	8.38
812.796	8.38
813.539	7.38
814.283	6.38
815.026	7.38
815.769	5.38
816.511	7.38
817.254	3.38
817.997	5.38
818.74	6.38
819.482	8.38
820.225	7.38
820.967	5.38
821.71	6.38
822.452	6.38
823.194	4.38
823.936	6.38
824.678	4.38
825.42	5.38
826.162	4.38
826.904	5.38
827.646	6.38
828.388	5.38
829.129	6.38
829.871	4.38
830.612	4.38
831.354	2.38
832.095	3.38
832.836	2.38
833.577	4.38
834.319	6.38
835.06	3.38
835.801	3.38
836.542	5.38
837.282	3.38
838.023	4.38
838.764	5.38
839.504	6.38
840.245	3.38
840.985	7.38
841.726	4.38
842.466	2.38
843.206	4.38
843.946	6.38
844.687	2.38
845.427	2.38
846.166	6.38
846.906	6.38
847.646	4.38
848.386	3.38
849.125	6.38
849.865	3.38
850.605	2.38
851.344	2.38
852.083	3.38
852.823	2.38
853.562	4.38
854.301	2.38
855.04	3.38
855.779	2.38
856.518	1.38
857.257	2.38
857.995	3.38
858.734	3.38
859.473	4.38
860.211	2.38
860.95	2.38
861.688	1.38
862.426	4.38
863.165	1.38
863.903	0.38
864.641	1.38
865.379	2.38
866.117	5.38
866.855	2.38
867.593	1.38
868.33	1.38
869.068	0.38
869.806	2.38
870.543	1.38
871.28	2.38
872.018	1.38
872.755	2.38
873.492	1.38
874.229	2.38
874.967	1.38
875.703	-0.62
876.44	2.38
877.177	1.38
877.914	2.38
878.651	1.38
879.387	0.38
880.124	0.38
880.86	0.38
881.597	1.38
882.333	0.38
883.069	-0.62
883.806	1.38
884.542	1.38
885.278	-0.62
886.014	1.38
886.749	3.38
887.485	1.38
888.221	1.38
888.957	1.38
889.692	1.38
890.428	2.38
891.163	2.38
891.899	0.38
892.634	3.38
893.369	1.38
894.104	0.38
894.839	1.38
895.574	0.38
896.309	2.38
897.044	1.38
897.779	1.38
898.514	1.38
899.248	-1.62
899.983	1.38
900.717	-1.62
901.452	2.38
902.186	-0.62
902.92	0.38
903.654	0.38
904.389	1.38
905.123	0.38
905.857	0.38
906.59	0.38
907.324	-0.62
908.058	1.38
908.792	1.38
909.525	4.38
910.259	1.38
910.992	0.38
911.726	0.38
912.459	-1.62
913.192	2.38
913.925	2.38
914.658	-0.62
915.391	-3.62
916.124	-0.62
916.857	0.38
917.59	0.38
918.323	0.38
919.055	2.38
919.788	0.38
920.521	0.38
921.253	1.38
921.985	1.38
922.718	0.38
923.45	0.38
924.182	0.38
924.914	0.38
925.646	-1.62
926.378	-0.62
927.11	1.38
927.841	2.38
928.573	0.38
929.305	2.38
930.036	-1.62
930.768	-0.62
931.499	0.38
932.23	0.38
932.962	-0.62
933.693	-1.62
934.424	0.38
935.155	0.38
935.886	0.38
936.617	1.38
937.348	1.38
938.078	2.38
938.809	1.38
939.54	1.38
940.27	0.38
941.001	-1.62
941.731	0.38
942.461	-2.62
943.191	1.38
943.922	2.38
944.652	3.38
945.382	0.38
946.112	-1.62
946.841	2.38
947.571	2.38
948.301	1.38
949.031	0.38
949.76	0.38
950.49	-1.62
951.219	-1.62
951.948	2.38
952.678	1.38
953.407	-0.62
954.136	3.38
954.865	2.38
955.594	-0.62
956.323	1.38
957.052	1.38
957.78	1.38
958.509	-0.62
959.238	-0.62
959.966	0.38
960.695	1.38
961.423	0.38
962.151	1.38
962.88	3.38
963.608	-0.62
964.336	0.38
965.064	1.38
965.792	1.38
966.52	0.38
967.247	0.38
967.975	0.38
968.703	0.38
969.43	2.38
970.158	0.38
970.885	0.38
971.613	0.38
972.34	0.38
973.067	1.38
973.794	0.38
974.521	-0.62
975.248	-1.62
975.975	-1.62
976.702	-0.62
977.429	2.38
978.156	0.38
978.882	-2.62
979.609	0.38
980.335	1.38
981.062	-0.62
981.788	-0.62
982.514	0.38
983.24	1.38
983.967	1.38
984.693	-0.62
985.419	-2.62
986.144	0.38
986.87	-0.62
987.596	-1.62
988.322	-0.62
989.047	1.38
989.773	-1.62
990.498	1.38
991.224	-1.62
991.949	1.38
992.674	-1.62
993.399	-1.62
994.124	0.38
994.849	-0.62
995.574	-0.62
996.299	0.38
997.024	0.38
997.749	2.38
998.473	2.38
999.198	-0.62
999.922	-0.62
1000.647	0.38
1001.371	3.38
1002.095	-1.62
1002.82	-0.62
1003.544	-1.62
1004.268	2.38
1004.992	2.38
1005.716	3.38
1006.439	3.38
1007.163	2.38
1007.887	1.38
1008.611	1.38
1009.334	0.38
1010.058	2.38
1010.781	-0.62
1011.504	0.38
1012.228	0.38
1012.951	0.38
1013.674	1.38
1014.397	-0.62
1015.12	-0.62
