节点500_425_QEPB04081__197__15-51-35-087.txt的数据

Date: Wed Nov 12 15:51:35 CST 2025
User: PC
Spectrometer: QEPB0408
触发模式: 0
积分时间 (秒): 1.000000E-2
Scans to average: 1
启用暗噪声校正: true
启用非线性校正: false
滑动平均宽度: 0
X轴模式: Wavelengths
Number of Pixels in Spectrum: 1044
>>>>>Begin Spectral Data<<<<<
220.843	3.88
221.644	2.88
222.444	5.88
223.244	1.88
224.045	4.88
224.845	3.88
225.645	3.88
226.445	3.88
227.245	4.88
228.045	3.88
228.845	4.88
229.645	4.88
230.444	3.88
231.244	3.88
232.043	4.88
232.843	3.88
233.642	6.88
234.442	4.88
235.241	4.88
236.04	4.88
236.839	3.88
237.638	3.88
238.437	6.88
239.236	6.88
240.035	6.88
240.833	4.88
241.632	9.88
242.43	6.88
243.229	8.88
244.027	9.88
244.826	6.88
245.624	6.88
246.422	7.88
247.22	9.88
248.018	6.88
248.816	9.88
249.614	8.88
250.412	9.88
251.21	10.88
252.007	9.88
252.805	12.88
253.602	8.88
254.4	10.88
255.197	12.88
255.994	13.88
256.791	12.88
257.589	10.88
258.386	16.88
259.183	14.88
259.979	14.88
260.776	12.88
261.573	14.88
262.37	16.88
263.166	15.88
263.963	16.88
264.759	16.88
265.556	17.88
266.352	18.88
267.148	17.88
267.944	17.88
268.74	22.88
269.536	18.88
270.332	19.88
271.128	21.88
271.924	20.88
272.719	25.88
273.515	20.88
274.311	23.88
275.106	23.88
275.901	22.88
276.697	20.88
277.492	23.88
278.287	21.88
279.082	24.88
279.877	27.88
280.672	23.88
281.467	26.88
282.262	25.88
283.056	22.88
283.851	23.88
284.646	27.88
285.44	24.88
286.234	25.88
287.029	22.88
287.823	25.88
288.617	25.88
289.411	24.88
290.205	22.88
290.999	21.88
291.793	25.88
292.587	25.88
293.381	23.88
294.174	21.88
294.968	19.88
295.761	18.88
296.555	20.88
297.348	18.88
298.141	20.88
298.935	22.88
299.728	19.88
300.521	19.88
301.314	16.88
302.107	16.88
302.899	15.88
303.692	16.88
304.485	16.88
305.277	19.88
306.07	13.88
306.862	15.88
307.655	13.88
308.447	16.88
309.239	12.88
310.031	16.88
310.823	12.88
311.615	13.88
312.407	13.88
313.199	11.88
313.991	12.88
314.783	11.88
315.574	11.88
316.366	8.88
317.157	8.88
317.949	10.88
318.74	9.88
319.531	11.88
320.322	10.88
321.113	10.88
321.904	10.88
322.695	9.88
323.486	10.88
324.277	9.88
325.068	7.88
325.858	7.88
326.649	7.88
327.439	8.88
328.23	7.88
329.02	9.88
329.81	7.88
330.6	10.88
331.391	8.88
332.181	5.88
332.971	5.88
333.76	7.88
334.55	7.88
335.34	6.88
336.13	8.88
336.919	8.88
337.709	4.88
338.498	9.88
339.287	8.88
340.077	8.88
340.866	8.88
341.655	8.88
342.444	11.88
343.233	10.88
344.022	7.88
344.811	9.88
345.6	8.88
346.388	6.88
347.177	7.88
347.965	6.88
348.754	8.88
349.542	8.88
350.33	7.88
351.119	7.88
351.907	7.88
352.695	5.88
353.483	9.88
354.271	6.88
355.059	7.88
355.846	5.88
356.634	6.88
357.422	7.88
358.209	5.88
358.997	7.88
359.784	8.88
360.571	6.88
361.359	6.88
362.146	5.88
362.933	6.88
363.72	7.88
364.507	5.88
365.294	8.88
366.081	5.88
366.867	6.88
367.654	4.88
368.44	7.88
369.227	5.88
370.013	4.88
370.8	6.88
371.586	6.88
372.372	6.88
373.158	4.88
373.944	4.88
374.73	6.88
375.516	5.88
376.302	7.88
377.088	4.88
377.873	6.88
378.659	4.88
379.445	6.88
380.23	7.88
381.015	5.88
381.801	5.88
382.586	6.88
383.371	8.88
384.156	6.88
384.941	5.88
385.726	6.88
386.511	5.88
387.296	6.88
388.08	7.88
388.865	6.88
389.649	6.88
390.434	4.88
391.218	8.88
392.003	5.88
392.787	9.88
393.571	9.88
394.355	5.88
395.139	8.88
395.923	7.88
396.707	7.88
397.491	8.88
398.274	9.88
399.058	9.88
399.842	6.88
400.625	7.88
401.408	9.88
402.192	8.88
402.975	8.88
403.758	10.88
404.541	9.88
405.324	7.88
406.107	12.88
406.89	7.88
407.673	8.88
408.456	9.88
409.238	10.88
410.021	8.88
410.803	12.88
411.586	9.88
412.368	11.88
413.151	8.88
413.933	11.88
414.715	12.88
415.497	12.88
416.279	14.88
417.061	12.88
417.843	11.88
418.624	11.88
419.406	12.88
420.188	15.88
420.969	12.88
421.751	17.88
422.532	12.88
423.313	16.88
424.095	15.88
424.876	16.88
425.657	16.88
426.438	19.88
427.219	16.88
428	14.88
428.78	15.88
429.561	18.88
430.342	19.88
431.122	21.88
431.903	19.88
432.683	21.88
433.464	20.88
434.244	20.88
435.024	19.88
435.804	27.88
436.584	25.88
437.364	27.88
438.144	28.88
438.924	30.88
439.704	32.88
440.483	29.88
441.263	38.88
442.042	35.88
442.822	39.88
443.601	42.88
444.38	42.88
445.16	44.88
445.939	50.88
446.718	53.88
447.497	58.88
448.276	61.88
449.054	67.88
449.833	75.88
450.612	79.88
451.391	93.88
452.169	103.88
452.948	114.88
453.726	121.88
454.504	132.88
455.282	148.88
456.061	164.88
456.839	182.88
457.617	193.88
458.395	229.88
459.172	253.88
459.95	271.88
460.728	315.88
461.506	349.88
462.283	391.88
463.061	429.88
463.838	484.88
464.615	548.88
465.393	605.88
466.17	679.88
466.947	753.88
467.724	841.88
468.501	929.88
469.278	1047.88
470.055	1165.88
470.831	1288.88
471.608	1416.88
472.385	1582.88
473.161	1752.88
473.938	1929.88
474.714	2151.88
475.49	2364.88
476.266	2638.88
477.043	2884.88
477.819	3196.88
478.595	3540.88
479.371	3898.88
480.146	4240.88
480.922	4700.88
481.698	5152.88
482.473	5639.88
483.249	6191.88
484.024	6824.88
484.8	7522.88
485.575	8162.88
486.35	8927.88
487.126	9794.88
487.901	10700.88
488.676	11670.88
489.451	12660.88
490.225	13784.88
491	14955.88
491.775	16207.88
492.55	17547.88
493.324	18900.88
494.099	20293.88
494.873	21716.88
495.647	23109.88
496.422	24632.88
497.196	26126.88
497.97	27629.88
498.744	29112.88
499.518	30414.88
500.292	31692.88
501.066	32781.88
501.839	33913.88
502.613	34904.88
503.387	35447.88
504.16	35991.88
504.934	36163.88
505.707	36172.88
506.48	35975.88
507.253	35613.88
508.027	35085.88
508.8	34448.88
509.573	33681.88
510.346	32833.88
511.118	31853.88
511.891	30715.88
512.664	29581.88
513.437	28375.88
514.209	27166.88
514.982	26216.88
515.754	25020.88
516.526	23924.88
517.298	22944.88
518.071	21902.88
518.843	21063.88
519.615	20234.88
520.387	19433.88
521.159	18646.88
521.93	17924.88
522.702	17224.88
523.474	16529.88
524.245	15829.88
525.017	15121.88
525.788	14483.88
526.56	13801.88
527.331	13205.88
528.102	12520.88
528.873	11912.88
529.644	11338.88
530.415	10783.88
531.186	10284.88
531.957	9728.88
532.728	9197.88
533.498	8703.88
534.269	8198.88
535.039	7767.88
535.81	7351.88
536.58	6910.88
537.351	6507.88
538.121	6147.88
538.891	5847.88
539.661	5543.88
540.431	5243.88
541.201	4957.88
541.971	4717.88
542.741	4462.88
543.51	4249.88
544.28	4023.88
545.05	3840.88
545.819	3655.88
546.588	3460.88
547.358	3281.88
548.127	3108.88
548.896	2975.88
549.665	2814.88
550.434	2665.88
551.203	2503.88
551.972	2368.88
552.741	2250.88
553.51	2144.88
554.278	2014.88
555.047	1901.88
555.815	1797.88
556.584	1700.88
557.352	1596.88
558.121	1504.88
558.889	1427.88
559.657	1339.88
560.425	1267.88
561.193	1189.88
561.961	1124.88
562.729	1086.88
563.496	1012.88
564.264	965.88
565.032	907.88
565.799	873.88
566.567	809.88
567.334	762.88
568.101	715.88
568.869	682.88
569.636	648.88
570.403	606.88
571.17	569.88
571.937	549.88
572.704	508.88
573.471	489.88
574.237	453.88
575.004	430.88
575.771	398.88
576.537	377.88
577.303	353.88
578.07	338.88
578.836	318.88
579.602	308.88
580.368	281.88
581.134	275.88
581.9	253.88
582.666	245.88
583.432	227.88
584.198	215.88
584.964	203.88
585.729	191.88
586.495	186.88
587.26	179.88
588.025	165.88
588.791	159.88
589.556	149.88
590.321	145.88
591.086	135.88
591.851	124.88
592.616	122.88
593.381	115.88
594.146	108.88
594.911	103.88
595.675	100.88
596.44	96.88
597.204	89.88
597.969	90.88
598.733	84.88
599.497	77.88
600.261	79.88
601.025	73.88
601.79	72.88
602.553	67.88
603.317	63.88
604.081	60.88
604.845	58.88
605.609	54.88
606.372	51.88
607.136	52.88
607.899	49.88
608.662	46.88
609.426	46.88
610.189	45.88
610.952	42.88
611.715	41.88
612.478	42.88
613.241	37.88
614.004	37.88
614.767	34.88
615.529	32.88
616.292	33.88
617.055	30.88
617.817	29.88
618.579	29.88
619.342	27.88
620.104	27.88
620.866	27.88
621.628	26.88
622.39	25.88
623.152	23.88
623.914	27.88
624.676	24.88
625.438	23.88
626.199	22.88
626.961	20.88
627.722	20.88
628.484	21.88
629.245	19.88
630.006	19.88
630.768	16.88
631.529	14.88
632.29	17.88
633.051	16.88
633.812	15.88
634.573	15.88
635.333	14.88
636.094	13.88
636.855	15.88
637.615	13.88
638.376	12.88
639.136	13.88
639.896	13.88
640.657	10.88
641.417	14.88
642.177	12.88
642.937	13.88
643.697	11.88
644.457	10.88
645.216	10.88
645.976	10.88
646.736	11.88
647.495	11.88
648.255	7.88
649.014	10.88
649.774	7.88
650.533	8.88
651.292	10.88
652.051	10.88
652.81	7.88
653.569	6.88
654.328	8.88
655.087	6.88
655.846	7.88
656.604	6.88
657.363	7.88
658.121	6.88
658.88	6.88
659.638	8.88
660.397	4.88
661.155	7.88
661.913	8.88
662.671	3.88
663.429	8.88
664.187	7.88
664.945	5.88
665.703	6.88
666.46	4.88
667.218	9.88
667.976	6.88
668.733	7.88
669.49	5.88
670.248	7.88
671.005	6.88
671.762	5.88
672.519	2.88
673.276	3.88
674.033	3.88
674.79	5.88
675.547	7.88
676.304	7.88
677.06	6.88
677.817	7.88
678.574	4.88
679.33	3.88
680.086	6.88
680.843	5.88
681.599	4.88
682.355	3.88
683.111	7.88
683.867	7.88
684.623	6.88
685.379	6.88
686.135	3.88
686.89	4.88
687.646	3.88
688.402	2.88
689.157	5.88
689.912	5.88
690.668	4.88
691.423	5.88
692.178	3.88
692.933	3.88
693.688	4.88
694.443	4.88
695.198	1.88
695.953	3.88
696.708	2.88
697.462	4.88
698.217	4.88
698.972	1.88
699.726	5.88
700.48	3.88
701.235	4.88
701.989	4.88
702.743	2.88
703.497	3.88
704.251	1.88
705.005	5.88
705.759	5.88
706.513	3.88
707.266	3.88
708.02	2.88
708.774	4.88
709.527	4.88
710.28	3.88
711.034	3.88
711.787	3.88
712.54	4.88
713.293	3.88
714.046	5.88
714.799	7.88
715.552	6.88
716.305	5.88
717.058	6.88
717.81	3.88
718.563	4.88
719.315	4.88
720.068	3.88
720.82	6.88
721.573	6.88
722.325	4.88
723.077	6.88
723.829	3.88
724.581	4.88
725.333	2.88
726.085	5.88
726.836	3.88
727.588	4.88
728.34	5.88
729.091	2.88
729.843	3.88
730.594	2.88
731.346	5.88
732.097	5.88
732.848	5.88
733.599	5.88
734.35	6.88
735.101	4.88
735.852	5.88
736.603	6.88
737.354	7.88
738.104	7.88
738.855	7.88
739.605	7.88
740.356	3.88
741.106	5.88
741.856	6.88
742.607	8.88
743.357	8.88
744.107	5.88
744.857	5.88
745.607	5.88
746.357	7.88
747.106	5.88
747.856	5.88
748.606	4.88
749.355	5.88
750.105	6.88
750.854	7.88
751.603	5.88
752.353	5.88
753.102	5.88
753.851	7.88
754.6	6.88
755.349	8.88
756.098	2.88
756.847	6.88
757.595	9.88
758.344	6.88
759.093	7.88
759.841	6.88
760.589	6.88
761.338	7.88
762.086	7.88
762.834	7.88
763.582	5.88
764.331	8.88
765.079	10.88
765.826	7.88
766.574	8.88
767.322	8.88
768.07	8.88
768.817	10.88
769.565	11.88
770.312	10.88
771.06	9.88
771.807	9.88
772.554	11.88
773.302	9.88
774.049	11.88
774.796	11.88
775.543	8.88
776.29	11.88
777.036	10.88
777.783	10.88
778.53	13.88
779.276	9.88
780.023	9.88
780.769	11.88
781.516	10.88
782.262	10.88
783.008	10.88
783.754	8.88
784.5	12.88
785.246	10.88
785.992	10.88
786.738	10.88
787.484	13.88
788.23	10.88
788.975	9.88
789.721	13.88
790.466	9.88
791.212	10.88
791.957	9.88
792.702	10.88
793.447	10.88
794.193	9.88
794.938	11.88
795.683	8.88
796.427	7.88
797.172	10.88
797.917	7.88
798.662	12.88
799.406	7.88
800.151	9.88
800.895	9.88
801.64	7.88
802.384	7.88
803.128	6.88
803.872	7.88
804.616	6.88
805.36	8.88
806.104	7.88
806.848	6.88
807.592	6.88
808.336	6.88
809.079	7.88
809.823	9.88
810.566	6.88
811.31	7.88
812.053	5.88
812.796	7.88
813.539	1.88
814.283	9.88
815.026	5.88
815.769	6.88
816.511	5.88
817.254	4.88
817.997	7.88
818.74	6.88
819.482	6.88
820.225	7.88
820.967	3.88
821.71	4.88
822.452	3.88
823.194	5.88
823.936	4.88
824.678	4.88
825.42	5.88
826.162	1.88
826.904	5.88
827.646	4.88
828.388	3.88
829.129	5.88
829.871	3.88
830.612	4.88
831.354	4.88
832.095	5.88
832.836	3.88
833.577	2.88
834.319	6.88
835.06	1.88
835.801	4.88
836.542	2.88
837.282	4.88
838.023	1.88
838.764	5.88
839.504	2.88
840.245	4.88
840.985	2.88
841.726	3.88
842.466	4.88
843.206	1.88
843.946	1.88
844.687	4.88
845.427	4.88
846.166	0.88
846.906	3.88
847.646	3.88
848.386	4.88
849.125	3.88
849.865	2.88
850.605	3.88
851.344	4.88
852.083	2.88
852.823	3.88
853.562	3.88
854.301	1.88
855.04	2.88
855.779	1.88
856.518	2.88
857.257	2.88
857.995	-0.12
858.734	3.88
859.473	2.88
860.211	2.88
860.95	2.88
861.688	2.88
862.426	2.88
863.165	1.88
863.903	4.88
864.641	2.88
865.379	2.88
866.117	1.88
866.855	0.88
867.593	3.88
868.33	-0.12
869.068	3.88
869.806	1.88
870.543	3.88
871.28	1.88
872.018	-2.12
872.755	-0.12
873.492	-0.12
874.229	1.88
874.967	1.88
875.703	-1.12
876.44	-1.12
877.177	-1.12
877.914	0.88
878.651	0.88
879.387	1.88
880.124	2.88
880.86	0.88
881.597	-1.12
882.333	1.88
883.069	-0.12
883.806	1.88
884.542	2.88
885.278	0.88
886.014	1.88
886.749	-0.12
887.485	1.88
888.221	0.88
888.957	-0.12
889.692	-1.12
890.428	1.88
891.163	-1.12
891.899	-0.12
892.634	0.88
893.369	1.88
894.104	-0.12
894.839	1.88
895.574	1.88
896.309	0.88
897.044	0.88
897.779	0.88
898.514	0.88
899.248	-0.12
899.983	-2.12
900.717	1.88
901.452	2.88
902.186	-0.12
902.92	0.88
903.654	-1.12
904.389	0.88
905.123	-0.12
905.857	2.88
906.59	0.88
907.324	-0.12
908.058	1.88
908.792	1.88
909.525	0.88
910.259	0.88
910.992	-1.12
911.726	-2.12
912.459	-0.12
913.192	-0.12
913.925	0.88
914.658	1.88
915.391	0.88
916.124	-0.12
916.857	0.88
917.59	-1.12
918.323	-1.12
919.055	0.88
919.788	-0.12
920.521	-0.12
921.253	-0.12
921.985	1.88
922.718	-0.12
923.45	-0.12
924.182	-0.12
924.914	-3.12
925.646	-1.12
926.378	-2.12
927.11	1.88
927.841	-2.12
928.573	-1.12
929.305	0.88
930.036	-0.12
930.768	2.88
931.499	-2.12
932.23	1.88
932.962	0.88
933.693	-3.12
934.424	0.88
935.155	-1.12
935.886	0.88
936.617	0.88
937.348	0.88
938.078	-0.12
938.809	-1.12
939.54	-0.12
940.27	-1.12
941.001	-1.12
941.731	1.88
942.461	-0.12
943.191	1.88
943.922	0.88
944.652	-0.12
945.382	-1.12
946.112	-0.12
946.841	0.88
947.571	-0.12
948.301	-2.12
949.031	0.88
949.76	-1.12
950.49	0.88
951.219	-1.12
951.948	-0.12
952.678	0.88
953.407	-0.12
954.136	0.88
954.865	-0.12
955.594	0.88
956.323	2.88
957.052	-0.12
957.78	-1.12
958.509	0.88
959.238	-1.12
959.966	-0.12
960.695	1.88
961.423	-1.12
962.151	-0.12
962.88	-1.12
963.608	-1.12
964.336	-1.12
965.064	-0.12
965.792	-0.12
966.52	-1.12
967.247	-1.12
967.975	0.88
968.703	0.88
969.43	0.88
970.158	-1.12
970.885	-0.12
971.613	0.88
972.34	-0.12
973.067	-2.12
973.794	0.88
974.521	-0.12
975.248	-2.12
975.975	-0.12
976.702	-1.12
977.429	-0.12
978.156	-1.12
978.882	-0.12
979.609	0.88
980.335	-1.12
981.062	0.88
981.788	-1.12
982.514	-1.12
983.24	-1.12
983.967	-0.12
984.693	1.88
985.419	-2.12
986.144	-0.12
986.87	0.88
987.596	0.88
988.322	2.88
989.047	-0.12
989.773	0.88
990.498	-0.12
991.224	-0.12
991.949	-1.12
992.674	-2.12
993.399	-2.12
994.124	-0.12
994.849	-1.12
995.574	0.88
996.299	0.88
997.024	1.88
997.749	-2.12
998.473	-0.12
999.198	0.88
999.922	-1.12
1000.647	-1.12
1001.371	3.88
1002.095	-1.12
1002.82	-1.12
1003.544	-3.12
1004.268	1.88
1004.992	1.88
1005.716	-0.12
1006.439	2.88
1007.163	2.88
1007.887	3.88
1008.611	-0.12
1009.334	1.88
1010.058	-0.12
1010.781	-0.12
1011.504	-0.12
1012.228	-1.12
1012.951	-0.12
1013.674	0.88
1014.397	-1.12
1015.12	1.88
