节点500_425_QEPB04081__384__15-54-41-748.txt的数据

Date: Wed Nov 12 15:54:41 CST 2025
User: PC
Spectrometer: QEPB0408
触发模式: 0
积分时间 (秒): 1.000000E-2
Scans to average: 1
启用暗噪声校正: true
启用非线性校正: false
滑动平均宽度: 0
X轴模式: Wavelengths
Number of Pixels in Spectrum: 1044
>>>>>Begin Spectral Data<<<<<
220.843	1.38
221.644	1.38
222.444	2.38
223.244	4.38
224.045	2.38
224.845	2.38
225.645	2.38
226.445	3.38
227.245	6.38
228.045	5.38
228.845	4.38
229.645	4.38
230.444	2.38
231.244	4.38
232.043	5.38
232.843	3.38
233.642	7.38
234.442	4.38
235.241	6.38
236.04	4.38
236.839	7.38
237.638	4.38
238.437	7.38
239.236	4.38
240.035	10.38
240.833	6.38
241.632	7.38
242.43	6.38
243.229	8.38
244.027	6.38
244.826	10.38
245.624	9.38
246.422	9.38
247.22	10.38
248.018	8.38
248.816	9.38
249.614	9.38
250.412	10.38
251.21	9.38
252.007	9.38
252.805	9.38
253.602	9.38
254.4	9.38
255.197	11.38
255.994	11.38
256.791	13.38
257.589	13.38
258.386	15.38
259.183	12.38
259.979	14.38
260.776	15.38
261.573	15.38
262.37	16.38
263.166	17.38
263.963	15.38
264.759	16.38
265.556	16.38
266.352	16.38
267.148	16.38
267.944	18.38
268.74	18.38
269.536	18.38
270.332	17.38
271.128	23.38
271.924	17.38
272.719	23.38
273.515	23.38
274.311	23.38
275.106	22.38
275.901	17.38
276.697	24.38
277.492	25.38
278.287	24.38
279.082	25.38
279.877	21.38
280.672	25.38
281.467	24.38
282.262	25.38
283.056	25.38
283.851	24.38
284.646	26.38
285.44	23.38
286.234	24.38
287.029	27.38
287.823	25.38
288.617	22.38
289.411	22.38
290.205	26.38
290.999	24.38
291.793	21.38
292.587	22.38
293.381	24.38
294.174	21.38
294.968	22.38
295.761	20.38
296.555	18.38
297.348	18.38
298.141	19.38
298.935	21.38
299.728	19.38
300.521	21.38
301.314	16.38
302.107	18.38
302.899	17.38
303.692	16.38
304.485	15.38
305.277	16.38
306.07	17.38
306.862	15.38
307.655	16.38
308.447	16.38
309.239	18.38
310.031	13.38
310.823	14.38
311.615	14.38
312.407	12.38
313.199	14.38
313.991	11.38
314.783	13.38
315.574	11.38
316.366	9.38
317.157	12.38
317.949	13.38
318.74	11.38
319.531	10.38
320.322	10.38
321.113	10.38
321.904	8.38
322.695	11.38
323.486	9.38
324.277	8.38
325.068	9.38
325.858	11.38
326.649	9.38
327.439	10.38
328.23	10.38
329.02	8.38
329.81	8.38
330.6	9.38
331.391	11.38
332.181	9.38
332.971	9.38
333.76	8.38
334.55	10.38
335.34	8.38
336.13	9.38
336.919	8.38
337.709	9.38
338.498	8.38
339.287	10.38
340.077	9.38
340.866	10.38
341.655	8.38
342.444	7.38
343.233	9.38
344.022	7.38
344.811	7.38
345.6	7.38
346.388	8.38
347.177	8.38
347.965	4.38
348.754	8.38
349.542	7.38
350.33	8.38
351.119	9.38
351.907	8.38
352.695	8.38
353.483	8.38
354.271	6.38
355.059	7.38
355.846	7.38
356.634	8.38
357.422	5.38
358.209	7.38
358.997	7.38
359.784	5.38
360.571	6.38
361.359	8.38
362.146	6.38
362.933	5.38
363.72	7.38
364.507	7.38
365.294	6.38
366.081	7.38
366.867	7.38
367.654	6.38
368.44	5.38
369.227	5.38
370.013	8.38
370.8	6.38
371.586	8.38
372.372	6.38
373.158	7.38
373.944	6.38
374.73	9.38
375.516	9.38
376.302	8.38
377.088	8.38
377.873	4.38
378.659	6.38
379.445	6.38
380.23	5.38
381.015	10.38
381.801	6.38
382.586	7.38
383.371	6.38
384.156	6.38
384.941	6.38
385.726	7.38
386.511	7.38
387.296	11.38
388.08	8.38
388.865	7.38
389.649	6.38
390.434	9.38
391.218	8.38
392.003	7.38
392.787	6.38
393.571	10.38
394.355	5.38
395.139	9.38
395.923	9.38
396.707	9.38
397.491	9.38
398.274	10.38
399.058	9.38
399.842	9.38
400.625	8.38
401.408	9.38
402.192	10.38
402.975	10.38
403.758	10.38
404.541	11.38
405.324	8.38
406.107	10.38
406.89	10.38
407.673	10.38
408.456	10.38
409.238	13.38
410.021	9.38
410.803	10.38
411.586	11.38
412.368	13.38
413.151	13.38
413.933	13.38
414.715	13.38
415.497	14.38
416.279	13.38
417.061	14.38
417.843	12.38
418.624	12.38
419.406	14.38
420.188	14.38
420.969	14.38
421.751	15.38
422.532	15.38
423.313	17.38
424.095	16.38
424.876	15.38
425.657	15.38
426.438	16.38
427.219	18.38
428	18.38
428.78	19.38
429.561	18.38
430.342	18.38
431.122	22.38
431.903	19.38
432.683	20.38
433.464	23.38
434.244	22.38
435.024	22.38
435.804	27.38
436.584	25.38
437.364	29.38
438.144	30.38
438.924	31.38
439.704	30.38
440.483	32.38
441.263	34.38
442.042	34.38
442.822	40.38
443.601	39.38
444.38	46.38
445.16	50.38
445.939	54.38
446.718	57.38
447.497	64.38
448.276	67.38
449.054	74.38
449.833	79.38
450.612	83.38
451.391	95.38
452.169	104.38
452.948	113.38
453.726	131.38
454.504	141.38
455.282	157.38
456.061	172.38
456.839	192.38
457.617	214.38
458.395	244.38
459.172	264.38
459.95	297.38
460.728	324.38
461.506	370.38
462.283	405.38
463.061	455.38
463.838	514.38
464.615	570.38
465.393	637.38
466.17	700.38
466.947	782.38
467.724	866.38
468.501	966.38
469.278	1070.38
470.055	1180.38
470.831	1310.38
471.608	1456.38
472.385	1608.38
473.161	1765.38
473.938	1963.38
474.714	2163.38
475.49	2366.38
476.266	2611.38
477.043	2870.38
477.819	3175.38
478.595	3465.38
479.371	3785.38
480.146	4168.38
480.922	4566.38
481.698	4990.38
482.473	5438.38
483.249	5953.38
484.024	6522.38
484.8	7145.38
485.575	7778.38
486.35	8461.38
487.126	9165.38
487.901	9988.38
488.676	10923.38
489.451	11849.38
490.225	12828.38
491	13896.38
491.775	15016.38
492.55	16201.38
493.324	17411.38
494.099	18638.38
494.873	19892.38
495.647	21248.38
496.422	22617.38
497.196	24017.38
497.97	25506.38
498.744	26777.38
499.518	28119.38
500.292	29314.38
501.066	30388.38
501.839	31516.38
502.613	32519.38
503.387	33254.38
504.16	33783.38
504.934	34212.38
505.707	34453.38
506.48	34277.38
507.253	34194.38
508.027	33986.38
508.8	33483.38
509.573	32810.38
510.346	32072.38
511.118	31265.38
511.891	30370.38
512.664	29321.38
513.437	28219.38
514.209	27076.38
514.982	26157.38
515.754	25096.38
516.526	24063.38
517.298	23090.38
518.071	22089.38
518.843	21210.38
519.615	20307.38
520.387	19547.38
521.159	18794.38
521.93	18058.38
522.702	17314.38
523.474	16695.38
524.245	16027.38
525.017	15292.38
525.788	14592.38
526.56	13976.38
527.331	13322.38
528.102	12727.38
528.873	12108.38
529.644	11595.38
530.415	11020.38
531.186	10524.38
531.957	9954.38
532.728	9447.38
533.498	8915.38
534.269	8447.38
535.039	8019.38
535.81	7554.38
536.58	7140.38
537.351	6727.38
538.121	6385.38
538.891	6062.38
539.661	5732.38
540.431	5430.38
541.201	5128.38
541.971	4912.38
542.741	4615.38
543.51	4388.38
544.28	4171.38
545.05	3968.38
545.819	3767.38
546.588	3596.38
547.358	3390.38
548.127	3234.38
548.896	3058.38
549.665	2916.38
550.434	2746.38
551.203	2616.38
551.972	2482.38
552.741	2374.38
553.51	2223.38
554.278	2108.38
555.047	1985.38
555.815	1877.38
556.584	1782.38
557.352	1677.38
558.121	1576.38
558.889	1482.38
559.657	1406.38
560.425	1330.38
561.193	1262.38
561.961	1190.38
562.729	1129.38
563.496	1070.38
564.264	1003.38
565.032	954.38
565.799	890.38
566.567	852.38
567.334	807.38
568.101	753.38
568.869	708.38
569.636	676.38
570.403	631.38
571.17	595.38
571.937	569.38
572.704	539.38
573.471	504.38
574.237	480.38
575.004	452.38
575.771	421.38
576.537	393.38
577.303	377.38
578.07	358.38
578.836	335.38
579.602	309.38
580.368	305.38
581.134	293.38
581.9	268.38
582.666	259.38
583.432	237.38
584.198	224.38
584.964	216.38
585.729	212.38
586.495	203.38
587.26	186.38
588.025	176.38
588.791	166.38
589.556	163.38
590.321	152.38
591.086	146.38
591.851	133.38
592.616	130.38
593.381	125.38
594.146	117.38
594.911	113.38
595.675	105.38
596.44	97.38
597.204	98.38
597.969	96.38
598.733	89.38
599.497	89.38
600.261	78.38
601.025	72.38
601.79	74.38
602.553	72.38
603.317	67.38
604.081	64.38
604.845	65.38
605.609	60.38
606.372	55.38
607.136	56.38
607.899	54.38
608.662	50.38
609.426	47.38
610.189	45.38
610.952	43.38
611.715	42.38
612.478	44.38
613.241	38.38
614.004	38.38
614.767	37.38
615.529	37.38
616.292	36.38
617.055	30.38
617.817	35.38
618.579	30.38
619.342	32.38
620.104	28.38
620.866	28.38
621.628	29.38
622.39	25.38
623.152	28.38
623.914	24.38
624.676	25.38
625.438	22.38
626.199	24.38
626.961	20.38
627.722	21.38
628.484	20.38
629.245	21.38
630.006	20.38
630.768	20.38
631.529	18.38
632.29	17.38
633.051	16.38
633.812	17.38
634.573	15.38
635.333	18.38
636.094	15.38
636.855	13.38
637.615	15.38
638.376	14.38
639.136	13.38
639.896	14.38
640.657	11.38
641.417	13.38
642.177	12.38
642.937	13.38
643.697	13.38
644.457	11.38
645.216	14.38
645.976	12.38
646.736	14.38
647.495	14.38
648.255	11.38
649.014	8.38
649.774	9.38
650.533	12.38
651.292	9.38
652.051	9.38
652.81	8.38
653.569	9.38
654.328	9.38
655.087	8.38
655.846	9.38
656.604	6.38
657.363	7.38
658.121	8.38
658.88	8.38
659.638	9.38
660.397	8.38
661.155	8.38
661.913	8.38
662.671	7.38
663.429	9.38
664.187	6.38
664.945	7.38
665.703	6.38
666.46	6.38
667.218	5.38
667.976	7.38
668.733	5.38
669.49	5.38
670.248	6.38
671.005	5.38
671.762	4.38
672.519	6.38
673.276	7.38
674.033	5.38
674.79	7.38
675.547	7.38
676.304	7.38
677.06	4.38
677.817	7.38
678.574	4.38
679.33	6.38
680.086	7.38
680.843	5.38
681.599	5.38
682.355	7.38
683.111	8.38
683.867	6.38
684.623	7.38
685.379	6.38
686.135	3.38
686.89	6.38
687.646	6.38
688.402	5.38
689.157	5.38
689.912	4.38
690.668	6.38
691.423	4.38
692.178	9.38
692.933	5.38
693.688	7.38
694.443	4.38
695.198	4.38
695.953	5.38
696.708	6.38
697.462	6.38
698.217	5.38
698.972	3.38
699.726	5.38
700.48	2.38
701.235	6.38
701.989	5.38
702.743	6.38
703.497	5.38
704.251	4.38
705.005	4.38
705.759	4.38
706.513	5.38
707.266	6.38
708.02	3.38
708.774	4.38
709.527	3.38
710.28	6.38
711.034	5.38
711.787	5.38
712.54	4.38
713.293	3.38
714.046	3.38
714.799	4.38
715.552	5.38
716.305	5.38
717.058	7.38
717.81	6.38
718.563	2.38
719.315	4.38
720.068	4.38
720.82	6.38
721.573	5.38
722.325	5.38
723.077	6.38
723.829	4.38
724.581	7.38
725.333	4.38
726.085	6.38
726.836	2.38
727.588	6.38
728.34	5.38
729.091	7.38
729.843	7.38
730.594	5.38
731.346	7.38
732.097	5.38
732.848	5.38
733.599	6.38
734.35	3.38
735.101	5.38
735.852	3.38
736.603	4.38
737.354	4.38
738.104	6.38
738.855	4.38
739.605	4.38
740.356	6.38
741.106	6.38
741.856	5.38
742.607	9.38
743.357	7.38
744.107	9.38
744.857	6.38
745.607	8.38
746.357	5.38
747.106	5.38
747.856	7.38
748.606	6.38
749.355	6.38
750.105	8.38
750.854	7.38
751.603	8.38
752.353	6.38
753.102	6.38
753.851	6.38
754.6	9.38
755.349	7.38
756.098	8.38
756.847	7.38
757.595	7.38
758.344	7.38
759.093	8.38
759.841	7.38
760.589	8.38
761.338	9.38
762.086	9.38
762.834	8.38
763.582	11.38
764.331	9.38
765.079	8.38
765.826	10.38
766.574	8.38
767.322	11.38
768.07	10.38
768.817	8.38
769.565	9.38
770.312	9.38
771.06	10.38
771.807	9.38
772.554	10.38
773.302	10.38
774.049	11.38
774.796	11.38
775.543	10.38
776.29	10.38
777.036	12.38
777.783	10.38
778.53	10.38
779.276	10.38
780.023	12.38
780.769	12.38
781.516	9.38
782.262	12.38
783.008	11.38
783.754	11.38
784.5	11.38
785.246	12.38
785.992	11.38
786.738	11.38
787.484	11.38
788.23	11.38
788.975	10.38
789.721	11.38
790.466	10.38
791.212	8.38
791.957	9.38
792.702	12.38
793.447	10.38
794.193	10.38
794.938	9.38
795.683	10.38
796.427	11.38
797.172	9.38
797.917	9.38
798.662	10.38
799.406	9.38
800.151	10.38
800.895	7.38
801.64	10.38
802.384	6.38
803.128	8.38
803.872	10.38
804.616	7.38
805.36	9.38
806.104	8.38
806.848	9.38
807.592	7.38
808.336	8.38
809.079	8.38
809.823	7.38
810.566	6.38
811.31	5.38
812.053	8.38
812.796	6.38
813.539	8.38
814.283	7.38
815.026	5.38
815.769	6.38
816.511	5.38
817.254	4.38
817.997	7.38
818.74	6.38
819.482	6.38
820.225	6.38
820.967	4.38
821.71	3.38
822.452	5.38
823.194	4.38
823.936	5.38
824.678	7.38
825.42	5.38
826.162	4.38
826.904	4.38
827.646	4.38
828.388	5.38
829.129	5.38
829.871	3.38
830.612	4.38
831.354	4.38
832.095	4.38
832.836	3.38
833.577	6.38
834.319	5.38
835.06	5.38
835.801	3.38
836.542	2.38
837.282	4.38
838.023	4.38
838.764	7.38
839.504	2.38
840.245	4.38
840.985	5.38
841.726	4.38
842.466	4.38
843.206	6.38
843.946	4.38
844.687	5.38
845.427	3.38
846.166	2.38
846.906	2.38
847.646	4.38
848.386	2.38
849.125	4.38
849.865	6.38
850.605	4.38
851.344	5.38
852.083	2.38
852.823	2.38
853.562	2.38
854.301	2.38
855.04	2.38
855.779	3.38
856.518	5.38
857.257	2.38
857.995	2.38
858.734	4.38
859.473	1.38
860.211	4.38
860.95	2.38
861.688	2.38
862.426	4.38
863.165	2.38
863.903	2.38
864.641	2.38
865.379	3.38
866.117	2.38
866.855	2.38
867.593	4.38
868.33	4.38
869.068	1.38
869.806	1.38
870.543	0.38
871.28	2.38
872.018	3.38
872.755	3.38
873.492	2.38
874.229	0.38
874.967	3.38
875.703	2.38
876.44	-0.62
877.177	1.38
877.914	0.38
878.651	1.38
879.387	1.38
880.124	1.38
880.86	2.38
881.597	0.38
882.333	2.38
883.069	1.38
883.806	2.38
884.542	2.38
885.278	1.38
886.014	2.38
886.749	1.38
887.485	-1.62
888.221	0.38
888.957	2.38
889.692	1.38
890.428	2.38
891.163	2.38
891.899	0.38
892.634	0.38
893.369	0.38
894.104	0.38
894.839	2.38
895.574	2.38
896.309	-0.62
897.044	2.38
897.779	1.38
898.514	3.38
899.248	1.38
899.983	0.38
900.717	-0.62
901.452	2.38
902.186	-0.62
902.92	1.38
903.654	-0.62
904.389	2.38
905.123	0.38
905.857	-0.62
906.59	1.38
907.324	0.38
908.058	1.38
908.792	1.38
909.525	0.38
910.259	0.38
910.992	2.38
911.726	-0.62
912.459	1.38
913.192	1.38
913.925	-0.62
914.658	0.38
915.391	2.38
916.124	0.38
916.857	1.38
917.59	0.38
918.323	1.38
919.055	1.38
919.788	-0.62
920.521	1.38
921.253	0.38
921.985	2.38
922.718	-0.62
923.45	-0.62
924.182	2.38
924.914	0.38
925.646	0.38
926.378	0.38
927.11	-0.62
927.841	1.38
928.573	-2.62
929.305	0.38
930.036	0.38
930.768	0.38
931.499	-0.62
932.23	-0.62
932.962	1.38
933.693	1.38
934.424	2.38
935.155	1.38
935.886	0.38
936.617	0.38
937.348	0.38
938.078	1.38
938.809	1.38
939.54	-0.62
940.27	-1.62
941.001	1.38
941.731	1.38
942.461	0.38
943.191	-1.62
943.922	-1.62
944.652	-0.62
945.382	-0.62
946.112	0.38
946.841	3.38
947.571	1.38
948.301	0.38
949.031	-0.62
949.76	0.38
950.49	0.38
951.219	-2.62
951.948	0.38
952.678	3.38
953.407	1.38
954.136	2.38
954.865	0.38
955.594	0.38
956.323	0.38
957.052	0.38
957.78	-1.62
958.509	0.38
959.238	2.38
959.966	0.38
960.695	2.38
961.423	0.38
962.151	0.38
962.88	-0.62
963.608	0.38
964.336	-0.62
965.064	0.38
965.792	0.38
966.52	-1.62
967.247	1.38
967.975	0.38
968.703	0.38
969.43	-0.62
970.158	0.38
970.885	0.38
971.613	0.38
972.34	-1.62
973.067	0.38
973.794	0.38
974.521	0.38
975.248	-0.62
975.975	2.38
976.702	0.38
977.429	0.38
978.156	2.38
978.882	1.38
979.609	-0.62
980.335	-0.62
981.062	0.38
981.788	-1.62
982.514	0.38
983.24	0.38
983.967	0.38
984.693	3.38
985.419	-1.62
986.144	1.38
986.87	0.38
987.596	-1.62
988.322	2.38
989.047	-1.62
989.773	0.38
990.498	0.38
991.224	3.38
991.949	-0.62
992.674	-0.62
993.399	2.38
994.124	0.38
994.849	0.38
995.574	1.38
996.299	-0.62
997.024	0.38
997.749	0.38
998.473	2.38
999.198	-1.62
999.922	0.38
1000.647	0.38
1001.371	4.38
1002.095	-2.62
1002.82	-0.62
1003.544	-1.62
1004.268	3.38
1004.992	1.38
1005.716	4.38
1006.439	2.38
1007.163	2.38
1007.887	4.38
1008.611	-1.62
1009.334	-1.62
1010.058	-0.62
1010.781	0.38
1011.504	1.38
1012.228	1.38
1012.951	0.38
1013.674	0.38
1014.397	1.38
1015.12	-1.62
