节点500_425_QEPB04081__595__15-58-12-434.txt的数据

Date: Wed Nov 12 15:58:12 CST 2025
User: PC
Spectrometer: QEPB0408
触发模式: 0
积分时间 (秒): 1.000000E-2
Scans to average: 1
启用暗噪声校正: true
启用非线性校正: false
滑动平均宽度: 0
X轴模式: Wavelengths
Number of Pixels in Spectrum: 1044
>>>>>Begin Spectral Data<<<<<
220.843	2.38
221.644	3.38
222.444	2.38
223.244	2.38
224.045	4.38
224.845	3.38
225.645	7.38
226.445	5.38
227.245	1.38
228.045	3.38
228.845	3.38
229.645	6.38
230.444	3.38
231.244	5.38
232.043	5.38
232.843	4.38
233.642	4.38
234.442	4.38
235.241	5.38
236.04	6.38
236.839	6.38
237.638	4.38
238.437	4.38
239.236	8.38
240.035	7.38
240.833	6.38
241.632	8.38
242.43	6.38
243.229	7.38
244.027	5.38
244.826	9.38
245.624	8.38
246.422	7.38
247.22	8.38
248.018	10.38
248.816	9.38
249.614	8.38
250.412	9.38
251.21	9.38
252.007	7.38
252.805	8.38
253.602	11.38
254.4	8.38
255.197	10.38
255.994	8.38
256.791	13.38
257.589	10.38
258.386	12.38
259.183	10.38
259.979	13.38
260.776	13.38
261.573	13.38
262.37	13.38
263.166	11.38
263.963	17.38
264.759	15.38
265.556	18.38
266.352	15.38
267.148	16.38
267.944	16.38
268.74	16.38
269.536	15.38
270.332	18.38
271.128	19.38
271.924	18.38
272.719	16.38
273.515	20.38
274.311	22.38
275.106	22.38
275.901	21.38
276.697	19.38
277.492	20.38
278.287	21.38
279.082	27.38
279.877	23.38
280.672	22.38
281.467	24.38
282.262	23.38
283.056	22.38
283.851	23.38
284.646	26.38
285.44	20.38
286.234	21.38
287.029	22.38
287.823	23.38
288.617	25.38
289.411	24.38
290.205	21.38
290.999	23.38
291.793	22.38
292.587	21.38
293.381	19.38
294.174	20.38
294.968	21.38
295.761	20.38
296.555	18.38
297.348	18.38
298.141	19.38
298.935	22.38
299.728	18.38
300.521	17.38
301.314	15.38
302.107	16.38
302.899	14.38
303.692	16.38
304.485	16.38
305.277	16.38
306.07	15.38
306.862	16.38
307.655	17.38
308.447	16.38
309.239	12.38
310.031	17.38
310.823	14.38
311.615	14.38
312.407	13.38
313.199	12.38
313.991	14.38
314.783	11.38
315.574	14.38
316.366	13.38
317.157	12.38
317.949	10.38
318.74	9.38
319.531	9.38
320.322	9.38
321.113	12.38
321.904	12.38
322.695	9.38
323.486	10.38
324.277	8.38
325.068	11.38
325.858	9.38
326.649	7.38
327.439	8.38
328.23	8.38
329.02	10.38
329.81	8.38
330.6	11.38
331.391	7.38
332.181	10.38
332.971	7.38
333.76	10.38
334.55	9.38
335.34	8.38
336.13	8.38
336.919	7.38
337.709	11.38
338.498	7.38
339.287	7.38
340.077	9.38
340.866	11.38
341.655	7.38
342.444	9.38
343.233	9.38
344.022	8.38
344.811	9.38
345.6	7.38
346.388	7.38
347.177	7.38
347.965	7.38
348.754	6.38
349.542	10.38
350.33	9.38
351.119	6.38
351.907	7.38
352.695	5.38
353.483	7.38
354.271	7.38
355.059	6.38
355.846	7.38
356.634	8.38
357.422	7.38
358.209	7.38
358.997	8.38
359.784	8.38
360.571	7.38
361.359	6.38
362.146	7.38
362.933	6.38
363.72	8.38
364.507	5.38
365.294	6.38
366.081	8.38
366.867	5.38
367.654	4.38
368.44	8.38
369.227	4.38
370.013	8.38
370.8	8.38
371.586	5.38
372.372	6.38
373.158	3.38
373.944	5.38
374.73	8.38
375.516	6.38
376.302	7.38
377.088	7.38
377.873	8.38
378.659	6.38
379.445	5.38
380.23	5.38
381.015	5.38
381.801	9.38
382.586	7.38
383.371	7.38
384.156	6.38
384.941	7.38
385.726	6.38
386.511	5.38
387.296	6.38
388.08	4.38
388.865	7.38
389.649	6.38
390.434	7.38
391.218	7.38
392.003	6.38
392.787	7.38
393.571	9.38
394.355	5.38
395.139	8.38
395.923	5.38
396.707	8.38
397.491	9.38
398.274	8.38
399.058	8.38
399.842	8.38
400.625	10.38
401.408	10.38
402.192	12.38
402.975	8.38
403.758	11.38
404.541	10.38
405.324	10.38
406.107	8.38
406.89	7.38
407.673	11.38
408.456	7.38
409.238	9.38
410.021	13.38
410.803	11.38
411.586	8.38
412.368	11.38
413.151	8.38
413.933	13.38
414.715	9.38
415.497	13.38
416.279	10.38
417.061	12.38
417.843	13.38
418.624	12.38
419.406	11.38
420.188	14.38
420.969	13.38
421.751	15.38
422.532	12.38
423.313	15.38
424.095	15.38
424.876	14.38
425.657	14.38
426.438	17.38
427.219	16.38
428	17.38
428.78	18.38
429.561	17.38
430.342	18.38
431.122	18.38
431.903	19.38
432.683	20.38
433.464	20.38
434.244	23.38
435.024	22.38
435.804	25.38
436.584	27.38
437.364	30.38
438.144	28.38
438.924	34.38
439.704	34.38
440.483	35.38
441.263	36.38
442.042	40.38
442.822	44.38
443.601	44.38
444.38	47.38
445.16	52.38
445.939	54.38
446.718	62.38
447.497	63.38
448.276	72.38
449.054	76.38
449.833	87.38
450.612	92.38
451.391	100.38
452.169	111.38
452.948	122.38
453.726	135.38
454.504	153.38
455.282	166.38
456.061	190.38
456.839	206.38
457.617	226.38
458.395	252.38
459.172	278.38
459.95	309.38
460.728	343.38
461.506	391.38
462.283	439.38
463.061	490.38
463.838	540.38
464.615	594.38
465.393	661.38
466.17	741.38
466.947	814.38
467.724	897.38
468.501	1001.38
469.278	1100.38
470.055	1217.38
470.831	1335.38
471.608	1489.38
472.385	1641.38
473.161	1810.38
473.938	1959.38
474.714	2167.38
475.49	2363.38
476.266	2608.38
477.043	2846.38
477.819	3119.38
478.595	3418.38
479.371	3714.38
480.146	4079.38
480.922	4439.38
481.698	4822.38
482.473	5258.38
483.249	5713.38
484.024	6233.38
484.8	6790.38
485.575	7351.38
486.35	7990.38
487.126	8626.38
487.901	9313.38
488.676	10106.38
489.451	10945.38
490.225	11815.38
491	12786.38
491.775	13802.38
492.55	14799.38
493.324	15932.38
494.099	16960.38
494.873	18075.38
495.647	19293.38
496.422	20516.38
497.196	21777.38
497.97	23102.38
498.744	24370.38
499.518	25672.38
500.292	26734.38
501.066	27975.38
501.839	28988.38
502.613	29959.38
503.387	30738.38
504.16	31480.38
504.934	32010.38
505.707	32370.38
506.48	32395.38
507.253	32496.38
508.027	32357.38
508.8	32161.38
509.573	31785.38
510.346	31226.38
511.118	30581.38
511.891	29831.38
512.664	28993.38
513.437	28000.38
514.209	27077.38
514.982	26233.38
515.754	25198.38
516.526	24251.38
517.298	23298.38
518.071	22355.38
518.843	21454.38
519.615	20584.38
520.387	19790.38
521.159	19072.38
521.93	18336.38
522.702	17560.38
523.474	16937.38
524.245	16294.38
525.017	15576.38
525.788	14884.38
526.56	14225.38
527.331	13604.38
528.102	13026.38
528.873	12430.38
529.644	11870.38
530.415	11393.38
531.186	10852.38
531.957	10322.38
532.728	9772.38
533.498	9249.38
534.269	8784.38
535.039	8321.38
535.81	7898.38
536.58	7426.38
537.351	7035.38
538.121	6674.38
538.891	6318.38
539.661	5992.38
540.431	5663.38
541.201	5348.38
541.971	5110.38
542.741	4819.38
543.51	4601.38
544.28	4372.38
545.05	4143.38
545.819	3951.38
546.588	3758.38
547.358	3555.38
548.127	3377.38
548.896	3227.38
549.665	3064.38
550.434	2916.38
551.203	2744.38
551.972	2604.38
552.741	2489.38
553.51	2339.38
554.278	2205.38
555.047	2086.38
555.815	1966.38
556.584	1867.38
557.352	1767.38
558.121	1676.38
558.889	1569.38
559.657	1495.38
560.425	1413.38
561.193	1323.38
561.961	1272.38
562.729	1196.38
563.496	1128.38
564.264	1071.38
565.032	1006.38
565.799	952.38
566.567	896.38
567.334	854.38
568.101	802.38
568.869	762.38
569.636	717.38
570.403	672.38
571.17	640.38
571.937	597.38
572.704	558.38
573.471	546.38
574.237	514.38
575.004	471.38
575.771	453.38
576.537	426.38
577.303	401.38
578.07	385.38
578.836	350.38
579.602	337.38
580.368	313.38
581.134	300.38
581.9	292.38
582.666	276.38
583.432	269.38
584.198	240.38
584.964	236.38
585.729	220.38
586.495	210.38
587.26	198.38
588.025	188.38
588.791	173.38
589.556	169.38
590.321	159.38
591.086	148.38
591.851	142.38
592.616	135.38
593.381	132.38
594.146	124.38
594.911	114.38
595.675	112.38
596.44	108.38
597.204	105.38
597.969	97.38
598.733	95.38
599.497	91.38
600.261	82.38
601.025	82.38
601.79	80.38
602.553	75.38
603.317	72.38
604.081	69.38
604.845	68.38
605.609	64.38
606.372	63.38
607.136	57.38
607.899	53.38
608.662	55.38
609.426	53.38
610.189	47.38
610.952	46.38
611.715	46.38
612.478	42.38
613.241	43.38
614.004	41.38
614.767	38.38
615.529	38.38
616.292	35.38
617.055	35.38
617.817	33.38
618.579	30.38
619.342	34.38
620.104	31.38
620.866	30.38
621.628	29.38
622.39	26.38
623.152	25.38
623.914	26.38
624.676	24.38
625.438	27.38
626.199	24.38
626.961	19.38
627.722	19.38
628.484	20.38
629.245	20.38
630.006	18.38
630.768	19.38
631.529	18.38
632.29	20.38
633.051	18.38
633.812	19.38
634.573	20.38
635.333	15.38
636.094	16.38
636.855	16.38
637.615	16.38
638.376	11.38
639.136	14.38
639.896	15.38
640.657	12.38
641.417	13.38
642.177	14.38
642.937	12.38
643.697	12.38
644.457	10.38
645.216	11.38
645.976	12.38
646.736	12.38
647.495	10.38
648.255	12.38
649.014	9.38
649.774	11.38
650.533	8.38
651.292	9.38
652.051	7.38
652.81	7.38
653.569	10.38
654.328	6.38
655.087	8.38
655.846	7.38
656.604	8.38
657.363	6.38
658.121	7.38
658.88	10.38
659.638	9.38
660.397	8.38
661.155	6.38
661.913	10.38
662.671	6.38
663.429	7.38
664.187	7.38
664.945	8.38
665.703	6.38
666.46	7.38
667.218	7.38
667.976	7.38
668.733	7.38
669.49	6.38
670.248	9.38
671.005	6.38
671.762	6.38
672.519	8.38
673.276	5.38
674.033	6.38
674.79	5.38
675.547	6.38
676.304	7.38
677.06	6.38
677.817	6.38
678.574	5.38
679.33	5.38
680.086	6.38
680.843	5.38
681.599	7.38
682.355	5.38
683.111	6.38
683.867	4.38
684.623	4.38
685.379	7.38
686.135	5.38
686.89	5.38
687.646	4.38
688.402	6.38
689.157	7.38
689.912	4.38
690.668	6.38
691.423	2.38
692.178	6.38
692.933	5.38
693.688	5.38
694.443	6.38
695.198	2.38
695.953	4.38
696.708	6.38
697.462	6.38
698.217	5.38
698.972	6.38
699.726	4.38
700.48	6.38
701.235	7.38
701.989	3.38
702.743	5.38
703.497	4.38
704.251	5.38
705.005	7.38
705.759	6.38
706.513	6.38
707.266	5.38
708.02	5.38
708.774	5.38
709.527	0.38
710.28	4.38
711.034	4.38
711.787	5.38
712.54	4.38
713.293	3.38
714.046	7.38
714.799	4.38
715.552	4.38
716.305	4.38
717.058	6.38
717.81	7.38
718.563	4.38
719.315	6.38
720.068	4.38
720.82	5.38
721.573	6.38
722.325	2.38
723.077	3.38
723.829	4.38
724.581	3.38
725.333	3.38
726.085	8.38
726.836	6.38
727.588	3.38
728.34	4.38
729.091	6.38
729.843	6.38
730.594	6.38
731.346	5.38
732.097	6.38
732.848	5.38
733.599	7.38
734.35	6.38
735.101	5.38
735.852	6.38
736.603	5.38
737.354	4.38
738.104	8.38
738.855	5.38
739.605	5.38
740.356	4.38
741.106	5.38
741.856	4.38
742.607	6.38
743.357	6.38
744.107	5.38
744.857	8.38
745.607	5.38
746.357	8.38
747.106	6.38
747.856	6.38
748.606	6.38
749.355	5.38
750.105	7.38
750.854	4.38
751.603	7.38
752.353	6.38
753.102	5.38
753.851	6.38
754.6	6.38
755.349	8.38
756.098	4.38
756.847	9.38
757.595	8.38
758.344	8.38
759.093	7.38
759.841	7.38
760.589	7.38
761.338	7.38
762.086	8.38
762.834	7.38
763.582	7.38
764.331	8.38
765.079	8.38
765.826	7.38
766.574	9.38
767.322	8.38
768.07	8.38
768.817	10.38
769.565	10.38
770.312	8.38
771.06	9.38
771.807	9.38
772.554	10.38
773.302	11.38
774.049	8.38
774.796	8.38
775.543	9.38
776.29	8.38
777.036	8.38
777.783	10.38
778.53	9.38
779.276	8.38
780.023	11.38
780.769	9.38
781.516	9.38
782.262	11.38
783.008	8.38
783.754	10.38
784.5	10.38
785.246	10.38
785.992	10.38
786.738	11.38
787.484	12.38
788.23	10.38
788.975	11.38
789.721	10.38
790.466	10.38
791.212	10.38
791.957	9.38
792.702	13.38
793.447	7.38
794.193	11.38
794.938	7.38
795.683	8.38
796.427	9.38
797.172	10.38
797.917	9.38
798.662	8.38
799.406	7.38
800.151	9.38
800.895	8.38
801.64	8.38
802.384	7.38
803.128	7.38
803.872	9.38
804.616	6.38
805.36	9.38
806.104	10.38
806.848	6.38
807.592	8.38
808.336	5.38
809.079	8.38
809.823	7.38
810.566	6.38
811.31	7.38
812.053	7.38
812.796	6.38
813.539	5.38
814.283	6.38
815.026	7.38
815.769	5.38
816.511	5.38
817.254	7.38
817.997	6.38
818.74	4.38
819.482	5.38
820.225	4.38
820.967	5.38
821.71	7.38
822.452	5.38
823.194	5.38
823.936	7.38
824.678	3.38
825.42	6.38
826.162	4.38
826.904	3.38
827.646	5.38
828.388	3.38
829.129	6.38
829.871	4.38
830.612	5.38
831.354	7.38
832.095	6.38
832.836	4.38
833.577	5.38
834.319	3.38
835.06	2.38
835.801	3.38
836.542	2.38
837.282	7.38
838.023	6.38
838.764	3.38
839.504	4.38
840.245	4.38
840.985	4.38
841.726	5.38
842.466	3.38
843.206	2.38
843.946	2.38
844.687	4.38
845.427	4.38
846.166	6.38
846.906	2.38
847.646	4.38
848.386	3.38
849.125	2.38
849.865	3.38
850.605	2.38
851.344	6.38
852.083	2.38
852.823	2.38
853.562	2.38
854.301	3.38
855.04	3.38
855.779	2.38
856.518	3.38
857.257	1.38
857.995	2.38
858.734	4.38
859.473	4.38
860.211	3.38
860.95	4.38
861.688	0.38
862.426	4.38
863.165	4.38
863.903	2.38
864.641	1.38
865.379	1.38
866.117	3.38
866.855	2.38
867.593	2.38
868.33	2.38
869.068	2.38
869.806	1.38
870.543	2.38
871.28	2.38
872.018	1.38
872.755	3.38
873.492	1.38
874.229	2.38
874.967	2.38
875.703	0.38
876.44	0.38
877.177	1.38
877.914	2.38
878.651	1.38
879.387	1.38
880.124	0.38
880.86	0.38
881.597	3.38
882.333	-0.62
883.069	0.38
883.806	0.38
884.542	0.38
885.278	1.38
886.014	1.38
886.749	-0.62
887.485	1.38
888.221	0.38
888.957	0.38
889.692	1.38
890.428	4.38
891.163	0.38
891.899	0.38
892.634	-0.62
893.369	0.38
894.104	-0.62
894.839	1.38
895.574	1.38
896.309	1.38
897.044	1.38
897.779	-0.62
898.514	1.38
899.248	1.38
899.983	2.38
900.717	1.38
901.452	0.38
902.186	-1.62
902.92	0.38
903.654	-0.62
904.389	1.38
905.123	2.38
905.857	-1.62
906.59	1.38
907.324	0.38
908.058	0.38
908.792	0.38
909.525	-1.62
910.259	0.38
910.992	2.38
911.726	0.38
912.459	-0.62
913.192	0.38
913.925	2.38
914.658	-1.62
915.391	1.38
916.124	1.38
916.857	0.38
917.59	0.38
918.323	0.38
919.055	0.38
919.788	-0.62
920.521	-0.62
921.253	2.38
921.985	0.38
922.718	-1.62
923.45	-0.62
924.182	2.38
924.914	0.38
925.646	0.38
926.378	1.38
927.11	3.38
927.841	0.38
928.573	1.38
929.305	0.38
930.036	0.38
930.768	0.38
931.499	2.38
932.23	-1.62
932.962	-0.62
933.693	-0.62
934.424	-0.62
935.155	2.38
935.886	1.38
936.617	0.38
937.348	0.38
938.078	2.38
938.809	1.38
939.54	-0.62
940.27	0.38
941.001	-1.62
941.731	1.38
942.461	-2.62
943.191	1.38
943.922	1.38
944.652	-1.62
945.382	0.38
946.112	0.38
946.841	-1.62
947.571	0.38
948.301	1.38
949.031	2.38
949.76	-0.62
950.49	1.38
951.219	-0.62
951.948	-0.62
952.678	1.38
953.407	-0.62
954.136	0.38
954.865	-0.62
955.594	0.38
956.323	-3.62
957.052	-1.62
957.78	0.38
958.509	-1.62
959.238	-0.62
959.966	-0.62
960.695	0.38
961.423	2.38
962.151	-0.62
962.88	-0.62
963.608	0.38
964.336	1.38
965.064	0.38
965.792	-1.62
966.52	0.38
967.247	-1.62
967.975	0.38
968.703	-1.62
969.43	1.38
970.158	1.38
970.885	1.38
971.613	0.38
972.34	-1.62
973.067	1.38
973.794	-0.62
974.521	0.38
975.248	0.38
975.975	0.38
976.702	0.38
977.429	-1.62
978.156	1.38
978.882	0.38
979.609	0.38
980.335	-2.62
981.062	2.38
981.788	-0.62
982.514	-0.62
983.24	0.38
983.967	0.38
984.693	0.38
985.419	2.38
986.144	1.38
986.87	-0.62
987.596	1.38
988.322	1.38
989.047	0.38
989.773	0.38
990.498	1.38
991.224	-0.62
991.949	2.38
992.674	0.38
993.399	-0.62
994.124	1.38
994.849	0.38
995.574	0.38
996.299	1.38
997.024	-0.62
997.749	-1.62
998.473	-1.62
999.198	2.38
999.922	-0.62
1000.647	0.38
1001.371	3.38
1002.095	-1.62
1002.82	-1.62
1003.544	-1.62
1004.268	4.38
1004.992	2.38
1005.716	-0.62
1006.439	4.38
1007.163	3.38
1007.887	2.38
1008.611	-0.62
1009.334	-0.62
1010.058	1.38
1010.781	1.38
1011.504	-0.62
1012.228	1.38
1012.951	0.38
1013.674	0.38
1014.397	0.38
1015.12	0.38
