节点500_425_QEPB04081__314__15-53-31-855.txt的数据

Date: Wed Nov 12 15:53:31 CST 2025
User: PC
Spectrometer: QEPB0408
触发模式: 0
积分时间 (秒): 1.000000E-2
Scans to average: 1
启用暗噪声校正: true
启用非线性校正: false
滑动平均宽度: 0
X轴模式: Wavelengths
Number of Pixels in Spectrum: 1044
>>>>>Begin Spectral Data<<<<<
220.843	0.88
221.644	1.88
222.444	1.88
223.244	0.88
224.045	1.88
224.845	1.88
225.645	3.88
226.445	3.88
227.245	3.88
228.045	3.88
228.845	2.88
229.645	5.88
230.444	4.88
231.244	3.88
232.043	2.88
232.843	5.88
233.642	2.88
234.442	2.88
235.241	6.88
236.04	5.88
236.839	7.88
237.638	5.88
238.437	5.88
239.236	7.88
240.035	6.88
240.833	7.88
241.632	6.88
242.43	7.88
243.229	6.88
244.027	7.88
244.826	8.88
245.624	4.88
246.422	9.88
247.22	6.88
248.018	6.88
248.816	6.88
249.614	11.88
250.412	6.88
251.21	9.88
252.007	10.88
252.805	8.88
253.602	12.88
254.4	10.88
255.197	10.88
255.994	9.88
256.791	11.88
257.589	11.88
258.386	13.88
259.183	13.88
259.979	13.88
260.776	13.88
261.573	12.88
262.37	13.88
263.166	14.88
263.963	13.88
264.759	15.88
265.556	17.88
266.352	14.88
267.148	13.88
267.944	18.88
268.74	17.88
269.536	18.88
270.332	21.88
271.128	20.88
271.924	21.88
272.719	21.88
273.515	21.88
274.311	21.88
275.106	26.88
275.901	20.88
276.697	23.88
277.492	26.88
278.287	21.88
279.082	25.88
279.877	25.88
280.672	21.88
281.467	21.88
282.262	25.88
283.056	21.88
283.851	25.88
284.646	21.88
285.44	21.88
286.234	22.88
287.029	26.88
287.823	22.88
288.617	24.88
289.411	24.88
290.205	23.88
290.999	22.88
291.793	23.88
292.587	23.88
293.381	25.88
294.174	23.88
294.968	20.88
295.761	18.88
296.555	19.88
297.348	19.88
298.141	19.88
298.935	21.88
299.728	19.88
300.521	17.88
301.314	16.88
302.107	16.88
302.899	14.88
303.692	15.88
304.485	17.88
305.277	17.88
306.07	17.88
306.862	16.88
307.655	14.88
308.447	13.88
309.239	14.88
310.031	14.88
310.823	15.88
311.615	12.88
312.407	11.88
313.199	11.88
313.991	13.88
314.783	12.88
315.574	10.88
316.366	8.88
317.157	10.88
317.949	11.88
318.74	8.88
319.531	8.88
320.322	8.88
321.113	8.88
321.904	7.88
322.695	9.88
323.486	9.88
324.277	9.88
325.068	8.88
325.858	11.88
326.649	9.88
327.439	9.88
328.23	7.88
329.02	7.88
329.81	6.88
330.6	8.88
331.391	8.88
332.181	8.88
332.971	6.88
333.76	9.88
334.55	7.88
335.34	7.88
336.13	8.88
336.919	7.88
337.709	7.88
338.498	8.88
339.287	7.88
340.077	7.88
340.866	7.88
341.655	8.88
342.444	9.88
343.233	9.88
344.022	6.88
344.811	7.88
345.6	7.88
346.388	6.88
347.177	9.88
347.965	8.88
348.754	9.88
349.542	5.88
350.33	9.88
351.119	5.88
351.907	7.88
352.695	8.88
353.483	4.88
354.271	7.88
355.059	6.88
355.846	5.88
356.634	6.88
357.422	6.88
358.209	6.88
358.997	7.88
359.784	9.88
360.571	6.88
361.359	6.88
362.146	5.88
362.933	7.88
363.72	6.88
364.507	6.88
365.294	8.88
366.081	7.88
366.867	7.88
367.654	5.88
368.44	6.88
369.227	7.88
370.013	7.88
370.8	5.88
371.586	5.88
372.372	5.88
373.158	4.88
373.944	6.88
374.73	6.88
375.516	7.88
376.302	4.88
377.088	7.88
377.873	7.88
378.659	5.88
379.445	5.88
380.23	5.88
381.015	6.88
381.801	5.88
382.586	5.88
383.371	6.88
384.156	7.88
384.941	5.88
385.726	7.88
386.511	6.88
387.296	5.88
388.08	5.88
388.865	8.88
389.649	6.88
390.434	7.88
391.218	8.88
392.003	7.88
392.787	7.88
393.571	7.88
394.355	9.88
395.139	7.88
395.923	9.88
396.707	8.88
397.491	7.88
398.274	6.88
399.058	9.88
399.842	9.88
400.625	7.88
401.408	8.88
402.192	7.88
402.975	8.88
403.758	7.88
404.541	9.88
405.324	10.88
406.107	8.88
406.89	10.88
407.673	9.88
408.456	9.88
409.238	9.88
410.021	9.88
410.803	10.88
411.586	13.88
412.368	8.88
413.151	10.88
413.933	11.88
414.715	11.88
415.497	10.88
416.279	11.88
417.061	11.88
417.843	11.88
418.624	13.88
419.406	13.88
420.188	11.88
420.969	14.88
421.751	10.88
422.532	16.88
423.313	15.88
424.095	14.88
424.876	17.88
425.657	15.88
426.438	17.88
427.219	19.88
428	16.88
428.78	15.88
429.561	18.88
430.342	17.88
431.122	19.88
431.903	20.88
432.683	18.88
433.464	20.88
434.244	24.88
435.024	22.88
435.804	23.88
436.584	27.88
437.364	27.88
438.144	29.88
438.924	29.88
439.704	31.88
440.483	29.88
441.263	33.88
442.042	34.88
442.822	39.88
443.601	41.88
444.38	45.88
445.16	51.88
445.939	50.88
446.718	55.88
447.497	60.88
448.276	67.88
449.054	70.88
449.833	75.88
450.612	84.88
451.391	91.88
452.169	103.88
452.948	113.88
453.726	123.88
454.504	138.88
455.282	148.88
456.061	168.88
456.839	186.88
457.617	206.88
458.395	237.88
459.172	245.88
459.95	290.88
460.728	320.88
461.506	352.88
462.283	400.88
463.061	445.88
463.838	487.88
464.615	556.88
465.393	623.88
466.17	689.88
466.947	766.88
467.724	859.88
468.501	948.88
469.278	1067.88
470.055	1168.88
470.831	1299.88
471.608	1438.88
472.385	1597.88
473.161	1771.88
473.938	1953.88
474.714	2149.88
475.49	2358.88
476.266	2616.88
477.043	2864.88
477.819	3157.88
478.595	3489.88
479.371	3837.88
480.146	4196.88
480.922	4633.88
481.698	5047.88
482.473	5546.88
483.249	6066.88
484.024	6657.88
484.8	7311.88
485.575	7957.88
486.35	8649.88
487.126	9465.88
487.901	10289.88
488.676	11213.88
489.451	12171.88
490.225	13265.88
491	14350.88
491.775	15551.88
492.55	16797.88
493.324	18043.88
494.099	19372.88
494.873	20679.88
495.647	22010.88
496.422	23402.88
497.196	24944.88
497.97	26418.88
498.744	27784.88
499.518	29165.88
500.292	30326.88
501.066	31446.88
501.839	32635.88
502.613	33489.88
503.387	34266.88
504.16	34797.88
504.934	35187.88
505.707	35193.88
506.48	35070.88
507.253	34859.88
508.027	34500.88
508.8	33892.88
509.573	33174.88
510.346	32473.88
511.118	31471.88
511.891	30512.88
512.664	29394.88
513.437	28213.88
514.209	27151.88
514.982	26118.88
515.754	25058.88
516.526	23993.88
517.298	23003.88
518.071	22109.88
518.843	21141.88
519.615	20259.88
520.387	19423.88
521.159	18715.88
521.93	17979.88
522.702	17271.88
523.474	16611.88
524.245	15967.88
525.017	15183.88
525.788	14524.88
526.56	13860.88
527.331	13248.88
528.102	12645.88
528.873	12026.88
529.644	11469.88
530.415	10928.88
531.186	10449.88
531.957	9871.88
532.728	9296.88
533.498	8830.88
534.269	8332.88
535.039	7902.88
535.81	7464.88
536.58	7043.88
537.351	6641.88
538.121	6267.88
538.891	5947.88
539.661	5656.88
540.431	5365.88
541.201	5072.88
541.971	4802.88
542.741	4536.88
543.51	4322.88
544.28	4122.88
545.05	3901.88
545.819	3698.88
546.588	3520.88
547.358	3345.88
548.127	3164.88
548.896	3039.88
549.665	2849.88
550.434	2728.88
551.203	2569.88
551.972	2439.88
552.741	2304.88
553.51	2166.88
554.278	2054.88
555.047	1922.88
555.815	1839.88
556.584	1734.88
557.352	1637.88
558.121	1541.88
558.889	1466.88
559.657	1383.88
560.425	1300.88
561.193	1233.88
561.961	1168.88
562.729	1094.88
563.496	1037.88
564.264	980.88
565.032	935.88
565.799	874.88
566.567	828.88
567.334	777.88
568.101	745.88
568.869	710.88
569.636	654.88
570.403	627.88
571.17	590.88
571.937	557.88
572.704	525.88
573.471	500.88
574.237	463.88
575.004	440.88
575.771	409.88
576.537	389.88
577.303	364.88
578.07	343.88
578.836	322.88
579.602	301.88
580.368	293.88
581.134	277.88
581.9	276.88
582.666	255.88
583.432	234.88
584.198	225.88
584.964	215.88
585.729	205.88
586.495	193.88
587.26	178.88
588.025	177.88
588.791	162.88
589.556	154.88
590.321	142.88
591.086	133.88
591.851	132.88
592.616	127.88
593.381	122.88
594.146	118.88
594.911	112.88
595.675	105.88
596.44	98.88
597.204	93.88
597.969	91.88
598.733	87.88
599.497	84.88
600.261	81.88
601.025	74.88
601.79	76.88
602.553	69.88
603.317	65.88
604.081	62.88
604.845	61.88
605.609	54.88
606.372	55.88
607.136	51.88
607.899	52.88
608.662	48.88
609.426	48.88
610.189	45.88
610.952	45.88
611.715	42.88
612.478	42.88
613.241	37.88
614.004	39.88
614.767	37.88
615.529	34.88
616.292	33.88
617.055	32.88
617.817	27.88
618.579	29.88
619.342	30.88
620.104	26.88
620.866	27.88
621.628	26.88
622.39	25.88
623.152	22.88
623.914	24.88
624.676	23.88
625.438	24.88
626.199	20.88
626.961	20.88
627.722	19.88
628.484	19.88
629.245	17.88
630.006	18.88
630.768	16.88
631.529	19.88
632.29	17.88
633.051	15.88
633.812	17.88
634.573	15.88
635.333	15.88
636.094	11.88
636.855	15.88
637.615	13.88
638.376	13.88
639.136	14.88
639.896	10.88
640.657	11.88
641.417	12.88
642.177	10.88
642.937	9.88
643.697	11.88
644.457	10.88
645.216	7.88
645.976	11.88
646.736	11.88
647.495	10.88
648.255	11.88
649.014	9.88
649.774	9.88
650.533	8.88
651.292	10.88
652.051	7.88
652.81	10.88
653.569	8.88
654.328	5.88
655.087	9.88
655.846	6.88
656.604	6.88
657.363	5.88
658.121	6.88
658.88	9.88
659.638	7.88
660.397	7.88
661.155	6.88
661.913	6.88
662.671	7.88
663.429	3.88
664.187	7.88
664.945	5.88
665.703	5.88
666.46	5.88
667.218	3.88
667.976	7.88
668.733	6.88
669.49	4.88
670.248	4.88
671.005	6.88
671.762	6.88
672.519	7.88
673.276	7.88
674.033	3.88
674.79	7.88
675.547	4.88
676.304	5.88
677.06	4.88
677.817	3.88
678.574	4.88
679.33	5.88
680.086	4.88
680.843	5.88
681.599	5.88
682.355	4.88
683.111	3.88
683.867	3.88
684.623	5.88
685.379	3.88
686.135	5.88
686.89	4.88
687.646	6.88
688.402	4.88
689.157	4.88
689.912	5.88
690.668	3.88
691.423	4.88
692.178	2.88
692.933	4.88
693.688	5.88
694.443	3.88
695.198	5.88
695.953	6.88
696.708	2.88
697.462	3.88
698.217	3.88
698.972	6.88
699.726	3.88
700.48	5.88
701.235	3.88
701.989	5.88
702.743	4.88
703.497	4.88
704.251	5.88
705.005	3.88
705.759	5.88
706.513	3.88
707.266	1.88
708.02	4.88
708.774	3.88
709.527	5.88
710.28	4.88
711.034	4.88
711.787	5.88
712.54	5.88
713.293	4.88
714.046	3.88
714.799	5.88
715.552	3.88
716.305	2.88
717.058	7.88
717.81	5.88
718.563	5.88
719.315	3.88
720.068	5.88
720.82	3.88
721.573	2.88
722.325	4.88
723.077	7.88
723.829	5.88
724.581	3.88
725.333	5.88
726.085	6.88
726.836	2.88
727.588	3.88
728.34	5.88
729.091	6.88
729.843	3.88
730.594	5.88
731.346	4.88
732.097	3.88
732.848	6.88
733.599	2.88
734.35	5.88
735.101	6.88
735.852	5.88
736.603	5.88
737.354	5.88
738.104	5.88
738.855	5.88
739.605	6.88
740.356	6.88
741.106	5.88
741.856	6.88
742.607	6.88
743.357	3.88
744.107	5.88
744.857	5.88
745.607	5.88
746.357	7.88
747.106	5.88
747.856	3.88
748.606	4.88
749.355	5.88
750.105	7.88
750.854	5.88
751.603	6.88
752.353	7.88
753.102	7.88
753.851	6.88
754.6	4.88
755.349	6.88
756.098	7.88
756.847	8.88
757.595	9.88
758.344	5.88
759.093	6.88
759.841	8.88
760.589	10.88
761.338	7.88
762.086	9.88
762.834	7.88
763.582	10.88
764.331	8.88
765.079	8.88
765.826	9.88
766.574	9.88
767.322	9.88
768.07	6.88
768.817	9.88
769.565	7.88
770.312	9.88
771.06	9.88
771.807	7.88
772.554	7.88
773.302	9.88
774.049	9.88
774.796	9.88
775.543	11.88
776.29	9.88
777.036	11.88
777.783	10.88
778.53	9.88
779.276	10.88
780.023	13.88
780.769	10.88
781.516	10.88
782.262	10.88
783.008	11.88
783.754	10.88
784.5	7.88
785.246	10.88
785.992	11.88
786.738	10.88
787.484	10.88
788.23	9.88
788.975	11.88
789.721	10.88
790.466	11.88
791.212	8.88
791.957	10.88
792.702	9.88
793.447	8.88
794.193	9.88
794.938	10.88
795.683	11.88
796.427	11.88
797.172	8.88
797.917	8.88
798.662	8.88
799.406	8.88
800.151	7.88
800.895	10.88
801.64	8.88
802.384	9.88
803.128	8.88
803.872	7.88
804.616	6.88
805.36	7.88
806.104	6.88
806.848	7.88
807.592	6.88
808.336	6.88
809.079	6.88
809.823	6.88
810.566	10.88
811.31	5.88
812.053	5.88
812.796	6.88
813.539	6.88
814.283	6.88
815.026	4.88
815.769	4.88
816.511	5.88
817.254	6.88
817.997	4.88
818.74	6.88
819.482	2.88
820.225	2.88
820.967	6.88
821.71	1.88
822.452	6.88
823.194	4.88
823.936	7.88
824.678	4.88
825.42	3.88
826.162	6.88
826.904	4.88
827.646	5.88
828.388	5.88
829.129	2.88
829.871	3.88
830.612	1.88
831.354	4.88
832.095	5.88
832.836	2.88
833.577	4.88
834.319	1.88
835.06	5.88
835.801	4.88
836.542	3.88
837.282	2.88
838.023	3.88
838.764	3.88
839.504	0.88
840.245	3.88
840.985	2.88
841.726	3.88
842.466	4.88
843.206	2.88
843.946	4.88
844.687	1.88
845.427	4.88
846.166	3.88
846.906	4.88
847.646	4.88
848.386	3.88
849.125	4.88
849.865	2.88
850.605	4.88
851.344	3.88
852.083	2.88
852.823	3.88
853.562	-1.12
854.301	2.88
855.04	2.88
855.779	2.88
856.518	0.88
857.257	1.88
857.995	3.88
858.734	3.88
859.473	2.88
860.211	0.88
860.95	2.88
861.688	3.88
862.426	2.88
863.165	1.88
863.903	2.88
864.641	2.88
865.379	1.88
866.117	1.88
866.855	1.88
867.593	2.88
868.33	1.88
869.068	1.88
869.806	-0.12
870.543	1.88
871.28	-1.12
872.018	2.88
872.755	1.88
873.492	-1.12
874.229	-0.12
874.967	0.88
875.703	1.88
876.44	0.88
877.177	0.88
877.914	0.88
878.651	0.88
879.387	1.88
880.124	0.88
880.86	0.88
881.597	1.88
882.333	-1.12
883.069	1.88
883.806	1.88
884.542	-0.12
885.278	-0.12
886.014	0.88
886.749	0.88
887.485	-0.12
888.221	-0.12
888.957	-0.12
889.692	-1.12
890.428	1.88
891.163	0.88
891.899	1.88
892.634	0.88
893.369	-0.12
894.104	-2.12
894.839	-0.12
895.574	-0.12
896.309	-0.12
897.044	1.88
897.779	-2.12
898.514	0.88
899.248	0.88
899.983	-0.12
900.717	1.88
901.452	2.88
902.186	1.88
902.92	-0.12
903.654	-0.12
904.389	-2.12
905.123	-0.12
905.857	0.88
906.59	-1.12
907.324	0.88
908.058	-2.12
908.792	-1.12
909.525	-0.12
910.259	-1.12
910.992	-0.12
911.726	-0.12
912.459	0.88
913.192	2.88
913.925	0.88
914.658	2.88
915.391	1.88
916.124	-0.12
916.857	-0.12
917.59	-2.12
918.323	0.88
919.055	-0.12
919.788	0.88
920.521	0.88
921.253	1.88
921.985	1.88
922.718	-1.12
923.45	-0.12
924.182	0.88
924.914	-1.12
925.646	-1.12
926.378	-0.12
927.11	-0.12
927.841	-0.12
928.573	2.88
929.305	-2.12
930.036	-2.12
930.768	-0.12
931.499	-0.12
932.23	0.88
932.962	-3.12
933.693	0.88
934.424	-0.12
935.155	1.88
935.886	-2.12
936.617	-2.12
937.348	1.88
938.078	-0.12
938.809	-1.12
939.54	1.88
940.27	-2.12
941.001	0.88
941.731	-2.12
942.461	-0.12
943.191	0.88
943.922	1.88
944.652	0.88
945.382	-1.12
946.112	1.88
946.841	-2.12
947.571	-0.12
948.301	0.88
949.031	1.88
949.76	1.88
950.49	0.88
951.219	1.88
951.948	-1.12
952.678	-0.12
953.407	-0.12
954.136	-2.12
954.865	-0.12
955.594	0.88
956.323	-1.12
957.052	-0.12
957.78	-2.12
958.509	-1.12
959.238	-2.12
959.966	1.88
960.695	-0.12
961.423	-2.12
962.151	0.88
962.88	0.88
963.608	-0.12
964.336	-2.12
965.064	-0.12
965.792	-2.12
966.52	-0.12
967.247	-1.12
967.975	-0.12
968.703	-0.12
969.43	-1.12
970.158	-1.12
970.885	-0.12
971.613	-1.12
972.34	-1.12
973.067	-1.12
973.794	-1.12
974.521	1.88
975.248	-0.12
975.975	-0.12
976.702	-1.12
977.429	-1.12
978.156	0.88
978.882	0.88
979.609	1.88
980.335	1.88
981.062	-1.12
981.788	-2.12
982.514	0.88
983.24	-2.12
983.967	-1.12
984.693	-0.12
985.419	-1.12
986.144	-1.12
986.87	-1.12
987.596	0.88
988.322	-1.12
989.047	-0.12
989.773	-0.12
990.498	1.88
991.224	0.88
991.949	0.88
992.674	0.88
993.399	-0.12
994.124	-2.12
994.849	-0.12
995.574	0.88
996.299	1.88
997.024	-1.12
997.749	-0.12
998.473	0.88
999.198	-3.12
999.922	-1.12
1000.647	0.88
1001.371	4.88
1002.095	-2.12
1002.82	-1.12
1003.544	-2.12
1004.268	3.88
1004.992	0.88
1005.716	1.88
1006.439	2.88
1007.163	3.88
1007.887	3.88
1008.611	0.88
1009.334	0.88
1010.058	-0.12
1010.781	1.88
1011.504	-0.12
1012.228	0.88
1012.951	-0.12
1013.674	0.88
1014.397	0.88
1015.12	-1.12
