节点500_425_QEPB04081__64__15-49-22-394.txt的数据

Date: Wed Nov 12 15:49:22 CST 2025
User: PC
Spectrometer: QEPB0408
触发模式: 0
积分时间 (秒): 1.000000E-2
Scans to average: 1
启用暗噪声校正: true
启用非线性校正: false
滑动平均宽度: 0
X轴模式: Wavelengths
Number of Pixels in Spectrum: 1044
>>>>>Begin Spectral Data<<<<<
220.843	4
221.644	1
222.444	2
223.244	4
224.045	4
224.845	2
225.645	1
226.445	4
227.245	4
228.045	4
228.845	7
229.645	5
230.444	4
231.244	6
232.043	6
232.843	3
233.642	6
234.442	8
235.241	4
236.04	7
236.839	5
237.638	8
238.437	8
239.236	6
240.035	8
240.833	7
241.632	7
242.43	8
243.229	7
244.027	8
244.826	9
245.624	10
246.422	7
247.22	10
248.018	10
248.816	10
249.614	8
250.412	8
251.21	9
252.007	12
252.805	12
253.602	9
254.4	11
255.197	15
255.994	12
256.791	14
257.589	13
258.386	14
259.183	15
259.979	12
260.776	16
261.573	19
262.37	17
263.166	18
263.963	23
264.759	18
265.556	19
266.352	21
267.148	17
267.944	23
268.74	21
269.536	21
270.332	21
271.128	23
271.924	23
272.719	22
273.515	22
274.311	23
275.106	26
275.901	26
276.697	27
277.492	26
278.287	27
279.082	25
279.877	25
280.672	24
281.467	29
282.262	27
283.056	27
283.851	29
284.646	28
285.44	26
286.234	28
287.029	24
287.823	26
288.617	26
289.411	25
290.205	26
290.999	23
291.793	25
292.587	23
293.381	20
294.174	24
294.968	21
295.761	20
296.555	22
297.348	21
298.141	21
298.935	21
299.728	18
300.521	19
301.314	15
302.107	19
302.899	16
303.692	16
304.485	21
305.277	18
306.07	14
306.862	13
307.655	17
308.447	14
309.239	14
310.031	16
310.823	16
311.615	14
312.407	12
313.199	13
313.991	13
314.783	13
315.574	14
316.366	9
317.157	10
317.949	13
318.74	12
319.531	9
320.322	12
321.113	12
321.904	8
322.695	10
323.486	9
324.277	10
325.068	10
325.858	10
326.649	10
327.439	6
328.23	9
329.02	11
329.81	8
330.6	8
331.391	10
332.181	7
332.971	8
333.76	9
334.55	9
335.34	8
336.13	7
336.919	7
337.709	10
338.498	7
339.287	8
340.077	9
340.866	7
341.655	9
342.444	7
343.233	8
344.022	7
344.811	6
345.6	10
346.388	5
347.177	7
347.965	7
348.754	10
349.542	9
350.33	6
351.119	10
351.907	6
352.695	10
353.483	7
354.271	6
355.059	8
355.846	5
356.634	6
357.422	5
358.209	11
358.997	6
359.784	9
360.571	9
361.359	7
362.146	8
362.933	6
363.72	8
364.507	7
365.294	8
366.081	7
366.867	7
367.654	5
368.44	5
369.227	8
370.013	7
370.8	5
371.586	9
372.372	8
373.158	7
373.944	7
374.73	8
375.516	6
376.302	6
377.088	6
377.873	7
378.659	8
379.445	6
380.23	5
381.015	7
381.801	8
382.586	8
383.371	5
384.156	7
384.941	7
385.726	6
386.511	8
387.296	8
388.08	8
388.865	9
389.649	9
390.434	7
391.218	8
392.003	8
392.787	8
393.571	9
394.355	9
395.139	9
395.923	8
396.707	9
397.491	9
398.274	7
399.058	9
399.842	9
400.625	10
401.408	10
402.192	11
402.975	9
403.758	10
404.541	10
405.324	10
406.107	10
406.89	10
407.673	13
408.456	10
409.238	11
410.021	11
410.803	12
411.586	12
412.368	12
413.151	10
413.933	12
414.715	11
415.497	11
416.279	14
417.061	13
417.843	12
418.624	13
419.406	13
420.188	14
420.969	17
421.751	16
422.532	14
423.313	17
424.095	16
424.876	17
425.657	17
426.438	18
427.219	15
428	21
428.78	19
429.561	19
430.342	18
431.122	21
431.903	22
432.683	22
433.464	23
434.244	24
435.024	25
435.804	23
436.584	23
437.364	29
438.144	29
438.924	34
439.704	29
440.483	35
441.263	34
442.042	38
442.822	38
443.601	41
444.38	46
445.16	49
445.939	49
446.718	53
447.497	60
448.276	64
449.054	68
449.833	70
450.612	83
451.391	86
452.169	94
452.948	106
453.726	117
454.504	126
455.282	141
456.061	156
456.839	173
457.617	187
458.395	213
459.172	237
459.95	268
460.728	296
461.506	327
462.283	366
463.061	418
463.838	455
464.615	521
465.393	585
466.17	648
466.947	716
467.724	811
468.501	925
469.278	1008
470.055	1122
470.831	1249
471.608	1396
472.385	1555
473.161	1725
473.938	1910
474.714	2134
475.49	2364
476.266	2621
477.043	2861
477.819	3199
478.595	3570
479.371	3934
480.146	4322
480.922	4762
481.698	5240
482.473	5784
483.249	6371
484.024	7056
484.8	7715
485.575	8484
486.35	9294
487.126	10188
487.901	11158
488.676	12229
489.451	13337
490.225	14553
491	15853
491.775	17226
492.55	18606
493.324	20124
494.099	21555
494.873	23028
495.647	24608
496.422	26161
497.196	27752
497.97	29386
498.744	30773
499.518	32288
500.292	33518
501.066	34600
501.839	35663
502.613	36442
503.387	36884
504.16	37383
504.934	37416
505.707	37331
506.48	36843
507.253	36490
508.027	35766
508.8	34988
509.573	33998
510.346	32926
511.118	31887
511.891	30635
512.664	29392
513.437	28117
514.209	26930
514.982	25854
515.754	24724
516.526	23624
517.298	22609
518.071	21650
518.843	20732
519.615	19947
520.387	19110
521.159	18431
521.93	17687
522.702	16954
523.474	16292
524.245	15562
525.017	14823
525.788	14189
526.56	13552
527.331	12882
528.102	12283
528.873	11633
529.644	11063
530.415	10585
531.186	9994
531.957	9476
532.728	8925
533.498	8422
534.269	7955
535.039	7492
535.81	7078
536.58	6667
537.351	6313
538.121	5947
538.891	5652
539.661	5372
540.431	5063
541.201	4808
541.971	4540
542.741	4313
543.51	4102
544.28	3889
545.05	3720
545.819	3531
546.588	3330
547.358	3180
548.127	2993
548.896	2847
549.665	2681
550.434	2551
551.203	2434
551.972	2290
552.741	2169
553.51	2041
554.278	1951
555.047	1815
555.815	1725
556.584	1622
557.352	1537
558.121	1440
558.889	1361
559.657	1288
560.425	1216
561.193	1145
561.961	1092
562.729	1020
563.496	961
564.264	908
565.032	865
565.799	808
566.567	781
567.334	736
568.101	696
568.869	659
569.636	618
570.403	579
571.17	554
571.937	519
572.704	494
573.471	470
574.237	435
575.004	407
575.771	387
576.537	361
577.303	343
578.07	326
578.836	302
579.602	285
580.368	274
581.134	257
581.9	244
582.666	230
583.432	221
584.198	206
584.964	198
585.729	190
586.495	176
587.26	172
588.025	158
588.791	152
589.556	147
590.321	137
591.086	131
591.851	123
592.616	122
593.381	110
594.146	102
594.911	102
595.675	95
596.44	94
597.204	90
597.969	92
598.733	84
599.497	80
600.261	73
601.025	71
601.79	66
602.553	64
603.317	61
604.081	58
604.845	59
605.609	54
606.372	52
607.136	54
607.899	49
608.662	49
609.426	45
610.189	44
610.952	43
611.715	37
612.478	38
613.241	38
614.004	37
614.767	36
615.529	34
616.292	31
617.055	35
617.817	26
618.579	30
619.342	28
620.104	30
620.866	27
621.628	26
622.39	26
623.152	25
623.914	24
624.676	23
625.438	21
626.199	22
626.961	20
627.722	20
628.484	20
629.245	16
630.006	19
630.768	18
631.529	17
632.29	14
633.051	18
633.812	18
634.573	17
635.333	15
636.094	14
636.855	18
637.615	12
638.376	10
639.136	13
639.896	16
640.657	14
641.417	12
642.177	10
642.937	9
643.697	12
644.457	9
645.216	12
645.976	10
646.736	11
647.495	9
648.255	11
649.014	14
649.774	10
650.533	10
651.292	8
652.051	7
652.81	10
653.569	9
654.328	6
655.087	10
655.846	9
656.604	9
657.363	10
658.121	10
658.88	8
659.638	8
660.397	7
661.155	9
661.913	8
662.671	8
663.429	6
664.187	7
664.945	5
665.703	6
666.46	9
667.218	6
667.976	6
668.733	7
669.49	6
670.248	5
671.005	4
671.762	6
672.519	7
673.276	6
674.033	7
674.79	5
675.547	5
676.304	6
677.06	6
677.817	7
678.574	8
679.33	4
680.086	9
680.843	6
681.599	5
682.355	8
683.111	5
683.867	6
684.623	5
685.379	5
686.135	6
686.89	6
687.646	5
688.402	6
689.157	4
689.912	3
690.668	4
691.423	5
692.178	2
692.933	5
693.688	5
694.443	4
695.198	5
695.953	7
696.708	4
697.462	3
698.217	6
698.972	3
699.726	4
700.48	4
701.235	5
701.989	5
702.743	2
703.497	7
704.251	3
705.005	4
705.759	5
706.513	5
707.266	6
708.02	5
708.774	9
709.527	4
710.28	3
711.034	5
711.787	5
712.54	4
713.293	7
714.046	5
714.799	3
715.552	4
716.305	6
717.058	2
717.81	4
718.563	4
719.315	3
720.068	5
720.82	5
721.573	6
722.325	4
723.077	6
723.829	5
724.581	4
725.333	5
726.085	6
726.836	6
727.588	7
728.34	6
729.091	7
729.843	5
730.594	6
731.346	3
732.097	8
732.848	8
733.599	7
734.35	6
735.101	6
735.852	6
736.603	4
737.354	6
738.104	6
738.855	5
739.605	7
740.356	6
741.106	10
741.856	5
742.607	6
743.357	9
744.107	7
744.857	6
745.607	5
746.357	7
747.106	6
747.856	7
748.606	7
749.355	8
750.105	9
750.854	6
751.603	8
752.353	6
753.102	8
753.851	7
754.6	7
755.349	8
756.098	7
756.847	8
757.595	9
758.344	9
759.093	9
759.841	6
760.589	8
761.338	9
762.086	7
762.834	13
763.582	9
764.331	8
765.079	10
765.826	9
766.574	9
767.322	10
768.07	11
768.817	11
769.565	11
770.312	10
771.06	10
771.807	10
772.554	10
773.302	12
774.049	12
774.796	11
775.543	10
776.29	12
777.036	13
777.783	11
778.53	12
779.276	10
780.023	12
780.769	14
781.516	12
782.262	10
783.008	11
783.754	11
784.5	11
785.246	13
785.992	13
786.738	14
787.484	13
788.23	11
788.975	10
789.721	10
790.466	10
791.212	12
791.957	13
792.702	10
793.447	11
794.193	13
794.938	14
795.683	11
796.427	11
797.172	12
797.917	9
798.662	11
799.406	9
800.151	8
800.895	9
801.64	9
802.384	8
803.128	7
803.872	9
804.616	9
805.36	11
806.104	7
806.848	9
807.592	10
808.336	8
809.079	10
809.823	6
810.566	7
811.31	6
812.053	8
812.796	8
813.539	8
814.283	6
815.026	6
815.769	6
816.511	6
817.254	2
817.997	6
818.74	6
819.482	5
820.225	8
820.967	4
821.71	5
822.452	7
823.194	4
823.936	4
824.678	5
825.42	7
826.162	4
826.904	7
827.646	5
828.388	4
829.129	5
829.871	4
830.612	4
831.354	3
832.095	2
832.836	5
833.577	2
834.319	2
835.06	5
835.801	4
836.542	4
837.282	5
838.023	4
838.764	4
839.504	4
840.245	1
840.985	3
841.726	5
842.466	4
843.206	4
843.946	6
844.687	7
845.427	1
846.166	4
846.906	2
847.646	2
848.386	4
849.125	2
849.865	4
850.605	6
851.344	3
852.083	3
852.823	4
853.562	3
854.301	2
855.04	3
855.779	2
856.518	2
857.257	4
857.995	2
858.734	3
859.473	3
860.211	2
860.95	1
861.688	3
862.426	1
863.165	1
863.903	5
864.641	3
865.379	3
866.117	2
866.855	0
867.593	2
868.33	2
869.068	1
869.806	2
870.543	3
871.28	-1
872.018	0
872.755	2
873.492	0
874.229	1
874.967	2
875.703	-1
876.44	2
877.177	-1
877.914	1
878.651	2
879.387	2
880.124	1
880.86	0
881.597	2
882.333	1
883.069	1
883.806	1
884.542	0
885.278	1
886.014	1
886.749	3
887.485	1
888.221	0
888.957	1
889.692	2
890.428	3
891.163	0
891.899	2
892.634	4
893.369	0
894.104	1
894.839	2
895.574	1
896.309	2
897.044	-2
897.779	2
898.514	0
899.248	2
899.983	1
900.717	2
901.452	0
902.186	2
902.92	1
903.654	2
904.389	2
905.123	2
905.857	0
906.59	1
907.324	-2
908.058	0
908.792	0
909.525	0
910.259	1
910.992	0
911.726	2
912.459	-1
913.192	-2
913.925	0
914.658	-1
915.391	1
916.124	-1
916.857	-1
917.59	-1
918.323	0
919.055	3
919.788	2
920.521	1
921.253	-1
921.985	2
922.718	-1
923.45	-1
924.182	-1
924.914	-1
925.646	2
926.378	-1
927.11	0
927.841	1
928.573	1
929.305	0
930.036	0
930.768	0
931.499	0
932.23	-2
932.962	-1
933.693	1
934.424	-1
935.155	1
935.886	-2
936.617	-1
937.348	0
938.078	0
938.809	-1
939.54	0
940.27	-3
941.001	0
941.731	-2
942.461	0
943.191	-2
943.922	-1
944.652	0
945.382	-2
946.112	1
946.841	2
947.571	0
948.301	0
949.031	0
949.76	0
950.49	0
951.219	0
951.948	-1
952.678	-2
953.407	-1
954.136	0
954.865	1
955.594	-2
956.323	0
957.052	0
957.78	-2
958.509	-3
959.238	2
959.966	0
960.695	0
961.423	-2
962.151	-1
962.88	-1
963.608	1
964.336	1
965.064	-1
965.792	0
966.52	0
967.247	-2
967.975	0
968.703	1
969.43	0
970.158	0
970.885	-1
971.613	0
972.34	1
973.067	0
973.794	0
974.521	0
975.248	-2
975.975	0
976.702	-1
977.429	-1
978.156	0
978.882	0
979.609	1
980.335	0
981.062	0
981.788	-1
982.514	-1
983.24	0
983.967	2
984.693	1
985.419	-3
986.144	0
986.87	0
987.596	-2
988.322	0
989.047	0
989.773	0
990.498	0
991.224	-1
991.949	1
992.674	-2
993.399	0
994.124	0
994.849	0
995.574	2
996.299	-1
997.024	2
997.749	-1
998.473	2
999.198	0
999.922	-2
1000.647	-1
1001.371	3
1002.095	-2
1002.82	1
1003.544	0
1004.268	4
1004.992	2
1005.716	4
1006.439	4
1007.163	2
1007.887	2
1008.611	-1
1009.334	1
1010.058	-1
1010.781	2
1011.504	1
1012.228	0
1012.951	-1
1013.674	-1
1014.397	1
1015.12	-1
