节点500_425_QEPB04081__545__15-57-22-509.txt的数据

Date: Wed Nov 12 15:57:22 CST 2025
User: PC
Spectrometer: QEPB0408
触发模式: 0
积分时间 (秒): 1.000000E-2
Scans to average: 1
启用暗噪声校正: true
启用非线性校正: false
滑动平均宽度: 0
X轴模式: Wavelengths
Number of Pixels in Spectrum: 1044
>>>>>Begin Spectral Data<<<<<
220.843	2.12
221.644	3.12
222.444	0.12
223.244	3.12
224.045	2.12
224.845	4.12
225.645	4.12
226.445	4.12
227.245	5.12
228.045	2.12
228.845	2.12
229.645	4.12
230.444	5.12
231.244	3.12
232.043	4.12
232.843	4.12
233.642	4.12
234.442	3.12
235.241	4.12
236.04	7.12
236.839	4.12
237.638	4.12
238.437	4.12
239.236	5.12
240.035	7.12
240.833	8.12
241.632	5.12
242.43	7.12
243.229	8.12
244.027	7.12
244.826	3.12
245.624	8.12
246.422	4.12
247.22	8.12
248.018	6.12
248.816	7.12
249.614	9.12
250.412	9.12
251.21	9.12
252.007	9.12
252.805	9.12
253.602	9.12
254.4	10.12
255.197	9.12
255.994	12.12
256.791	11.12
257.589	9.12
258.386	10.12
259.183	12.12
259.979	12.12
260.776	13.12
261.573	14.12
262.37	12.12
263.166	14.12
263.963	14.12
264.759	13.12
265.556	16.12
266.352	16.12
267.148	17.12
267.944	14.12
268.74	18.12
269.536	17.12
270.332	17.12
271.128	18.12
271.924	19.12
272.719	21.12
273.515	18.12
274.311	22.12
275.106	21.12
275.901	22.12
276.697	23.12
277.492	23.12
278.287	19.12
279.082	21.12
279.877	21.12
280.672	24.12
281.467	20.12
282.262	22.12
283.056	21.12
283.851	23.12
284.646	24.12
285.44	24.12
286.234	26.12
287.029	22.12
287.823	24.12
288.617	22.12
289.411	22.12
290.205	21.12
290.999	21.12
291.793	23.12
292.587	21.12
293.381	21.12
294.174	20.12
294.968	22.12
295.761	18.12
296.555	19.12
297.348	21.12
298.141	18.12
298.935	21.12
299.728	21.12
300.521	18.12
301.314	17.12
302.107	20.12
302.899	18.12
303.692	15.12
304.485	14.12
305.277	16.12
306.07	14.12
306.862	14.12
307.655	14.12
308.447	16.12
309.239	14.12
310.031	10.12
310.823	13.12
311.615	12.12
312.407	10.12
313.199	11.12
313.991	11.12
314.783	10.12
315.574	12.12
316.366	13.12
317.157	13.12
317.949	13.12
318.74	9.12
319.531	10.12
320.322	9.12
321.113	10.12
321.904	10.12
322.695	9.12
323.486	11.12
324.277	12.12
325.068	11.12
325.858	9.12
326.649	9.12
327.439	9.12
328.23	9.12
329.02	10.12
329.81	10.12
330.6	10.12
331.391	8.12
332.181	10.12
332.971	6.12
333.76	10.12
334.55	7.12
335.34	11.12
336.13	7.12
336.919	10.12
337.709	10.12
338.498	7.12
339.287	8.12
340.077	7.12
340.866	6.12
341.655	9.12
342.444	7.12
343.233	10.12
344.022	9.12
344.811	6.12
345.6	8.12
346.388	8.12
347.177	9.12
347.965	8.12
348.754	6.12
349.542	8.12
350.33	8.12
351.119	9.12
351.907	7.12
352.695	8.12
353.483	8.12
354.271	10.12
355.059	10.12
355.846	5.12
356.634	7.12
357.422	7.12
358.209	7.12
358.997	7.12
359.784	5.12
360.571	8.12
361.359	7.12
362.146	8.12
362.933	8.12
363.72	6.12
364.507	6.12
365.294	7.12
366.081	7.12
366.867	5.12
367.654	7.12
368.44	6.12
369.227	5.12
370.013	8.12
370.8	8.12
371.586	7.12
372.372	7.12
373.158	4.12
373.944	7.12
374.73	4.12
375.516	7.12
376.302	5.12
377.088	6.12
377.873	5.12
378.659	8.12
379.445	6.12
380.23	4.12
381.015	8.12
381.801	7.12
382.586	5.12
383.371	8.12
384.156	5.12
384.941	6.12
385.726	6.12
386.511	9.12
387.296	6.12
388.08	7.12
388.865	6.12
389.649	7.12
390.434	8.12
391.218	8.12
392.003	3.12
392.787	7.12
393.571	5.12
394.355	6.12
395.139	4.12
395.923	7.12
396.707	8.12
397.491	8.12
398.274	9.12
399.058	9.12
399.842	9.12
400.625	8.12
401.408	9.12
402.192	8.12
402.975	7.12
403.758	10.12
404.541	7.12
405.324	10.12
406.107	9.12
406.89	10.12
407.673	7.12
408.456	11.12
409.238	8.12
410.021	10.12
410.803	11.12
411.586	12.12
412.368	10.12
413.151	10.12
413.933	11.12
414.715	13.12
415.497	12.12
416.279	11.12
417.061	12.12
417.843	12.12
418.624	12.12
419.406	10.12
420.188	12.12
420.969	13.12
421.751	13.12
422.532	13.12
423.313	17.12
424.095	16.12
424.876	14.12
425.657	16.12
426.438	17.12
427.219	18.12
428	16.12
428.78	17.12
429.561	18.12
430.342	19.12
431.122	21.12
431.903	21.12
432.683	19.12
433.464	21.12
434.244	23.12
435.024	22.12
435.804	25.12
436.584	27.12
437.364	28.12
438.144	29.12
438.924	30.12
439.704	31.12
440.483	33.12
441.263	33.12
442.042	36.12
442.822	41.12
443.601	47.12
444.38	46.12
445.16	51.12
445.939	55.12
446.718	61.12
447.497	63.12
448.276	71.12
449.054	79.12
449.833	85.12
450.612	91.12
451.391	99.12
452.169	113.12
452.948	119.12
453.726	137.12
454.504	151.12
455.282	159.12
456.061	186.12
456.839	200.12
457.617	221.12
458.395	252.12
459.172	276.12
459.95	312.12
460.728	346.12
461.506	390.12
462.283	435.12
463.061	472.12
463.838	549.12
464.615	598.12
465.393	656.12
466.17	723.12
466.947	817.12
467.724	898.12
468.501	995.12
469.278	1092.12
470.055	1210.12
470.831	1338.12
471.608	1467.12
472.385	1620.12
473.161	1781.12
473.938	1945.12
474.714	2167.12
475.49	2374.12
476.266	2590.12
477.043	2847.12
477.819	3129.12
478.595	3404.12
479.371	3724.12
480.146	4057.12
480.922	4435.12
481.698	4833.12
482.473	5265.12
483.249	5746.12
484.024	6255.12
484.8	6788.12
485.575	7369.12
486.35	7980.12
487.126	8666.12
487.901	9385.12
488.676	10173.12
489.451	10997.12
490.225	11916.12
491	12858.12
491.775	13886.12
492.55	14918.12
493.324	16042.12
494.099	17089.12
494.873	18272.12
495.647	19510.12
496.422	20661.12
497.196	21964.12
497.97	23300.12
498.744	24560.12
499.518	25905.12
500.292	26981.12
501.066	28048.12
501.839	29171.12
502.613	30132.12
503.387	30905.12
504.16	31649.12
504.934	32133.12
505.707	32401.12
506.48	32518.12
507.253	32538.12
508.027	32446.12
508.8	32227.12
509.573	31830.12
510.346	31257.12
511.118	30557.12
511.891	29836.12
512.664	28930.12
513.437	27987.12
514.209	26992.12
514.982	26169.12
515.754	25130.12
516.526	24204.12
517.298	23224.12
518.071	22281.12
518.843	21296.12
519.615	20552.12
520.387	19725.12
521.159	18964.12
521.93	18278.12
522.702	17560.12
523.474	16867.12
524.245	16201.12
525.017	15501.12
525.788	14799.12
526.56	14220.12
527.331	13544.12
528.102	12912.12
528.873	12370.12
529.644	11778.12
530.415	11358.12
531.186	10807.12
531.957	10285.12
532.728	9722.12
533.498	9201.12
534.269	8699.12
535.039	8284.12
535.81	7875.12
536.58	7438.12
537.351	7004.12
538.121	6611.12
538.891	6260.12
539.661	5948.12
540.431	5635.12
541.201	5342.12
541.971	5050.12
542.741	4818.12
543.51	4560.12
544.28	4343.12
545.05	4110.12
545.819	3922.12
546.588	3711.12
547.358	3538.12
548.127	3355.12
548.896	3172.12
549.665	3034.12
550.434	2877.12
551.203	2741.12
551.972	2598.12
552.741	2474.12
553.51	2314.12
554.278	2191.12
555.047	2076.12
555.815	1951.12
556.584	1865.12
557.352	1753.12
558.121	1651.12
558.889	1548.12
559.657	1482.12
560.425	1407.12
561.193	1320.12
561.961	1262.12
562.729	1187.12
563.496	1119.12
564.264	1062.12
565.032	987.12
565.799	938.12
566.567	894.12
567.334	841.12
568.101	795.12
568.869	747.12
569.636	705.12
570.403	669.12
571.17	623.12
571.937	598.12
572.704	562.12
573.471	542.12
574.237	508.12
575.004	471.12
575.771	443.12
576.537	421.12
577.303	398.12
578.07	375.12
578.836	355.12
579.602	326.12
580.368	318.12
581.134	298.12
581.9	287.12
582.666	265.12
583.432	256.12
584.198	244.12
584.964	230.12
585.729	215.12
586.495	208.12
587.26	196.12
588.025	190.12
588.791	179.12
589.556	168.12
590.321	152.12
591.086	150.12
591.851	144.12
592.616	133.12
593.381	127.12
594.146	120.12
594.911	122.12
595.675	112.12
596.44	113.12
597.204	103.12
597.969	93.12
598.733	90.12
599.497	88.12
600.261	86.12
601.025	80.12
601.79	80.12
602.553	75.12
603.317	69.12
604.081	69.12
604.845	65.12
605.609	64.12
606.372	60.12
607.136	56.12
607.899	57.12
608.662	51.12
609.426	50.12
610.189	49.12
610.952	48.12
611.715	48.12
612.478	43.12
613.241	43.12
614.004	38.12
614.767	38.12
615.529	39.12
616.292	34.12
617.055	35.12
617.817	36.12
618.579	34.12
619.342	30.12
620.104	27.12
620.866	28.12
621.628	29.12
622.39	29.12
623.152	26.12
623.914	26.12
624.676	25.12
625.438	26.12
626.199	22.12
626.961	20.12
627.722	20.12
628.484	23.12
629.245	19.12
630.006	21.12
630.768	20.12
631.529	19.12
632.29	19.12
633.051	16.12
633.812	19.12
634.573	15.12
635.333	16.12
636.094	16.12
636.855	13.12
637.615	13.12
638.376	13.12
639.136	17.12
639.896	14.12
640.657	14.12
641.417	15.12
642.177	11.12
642.937	15.12
643.697	11.12
644.457	11.12
645.216	11.12
645.976	10.12
646.736	9.12
647.495	9.12
648.255	10.12
649.014	12.12
649.774	7.12
650.533	11.12
651.292	8.12
652.051	10.12
652.81	7.12
653.569	9.12
654.328	9.12
655.087	9.12
655.846	7.12
656.604	5.12
657.363	7.12
658.121	7.12
658.88	11.12
659.638	7.12
660.397	8.12
661.155	7.12
661.913	7.12
662.671	6.12
663.429	10.12
664.187	8.12
664.945	7.12
665.703	4.12
666.46	9.12
667.218	8.12
667.976	7.12
668.733	5.12
669.49	7.12
670.248	7.12
671.005	7.12
671.762	7.12
672.519	6.12
673.276	7.12
674.033	7.12
674.79	3.12
675.547	6.12
676.304	7.12
677.06	5.12
677.817	4.12
678.574	6.12
679.33	5.12
680.086	6.12
680.843	6.12
681.599	5.12
682.355	4.12
683.111	2.12
683.867	5.12
684.623	4.12
685.379	5.12
686.135	4.12
686.89	5.12
687.646	3.12
688.402	3.12
689.157	5.12
689.912	6.12
690.668	4.12
691.423	2.12
692.178	5.12
692.933	5.12
693.688	5.12
694.443	4.12
695.198	4.12
695.953	4.12
696.708	6.12
697.462	4.12
698.217	5.12
698.972	6.12
699.726	4.12
700.48	5.12
701.235	4.12
701.989	4.12
702.743	5.12
703.497	5.12
704.251	4.12
705.005	5.12
705.759	4.12
706.513	6.12
707.266	5.12
708.02	5.12
708.774	6.12
709.527	5.12
710.28	4.12
711.034	5.12
711.787	5.12
712.54	3.12
713.293	7.12
714.046	5.12
714.799	4.12
715.552	6.12
716.305	2.12
717.058	4.12
717.81	3.12
718.563	5.12
719.315	4.12
720.068	7.12
720.82	6.12
721.573	6.12
722.325	5.12
723.077	6.12
723.829	2.12
724.581	5.12
725.333	5.12
726.085	5.12
726.836	4.12
727.588	6.12
728.34	5.12
729.091	2.12
729.843	9.12
730.594	4.12
731.346	7.12
732.097	6.12
732.848	4.12
733.599	6.12
734.35	6.12
735.101	8.12
735.852	7.12
736.603	7.12
737.354	6.12
738.104	4.12
738.855	7.12
739.605	6.12
740.356	5.12
741.106	8.12
741.856	4.12
742.607	6.12
743.357	5.12
744.107	8.12
744.857	7.12
745.607	5.12
746.357	7.12
747.106	5.12
747.856	7.12
748.606	7.12
749.355	7.12
750.105	5.12
750.854	7.12
751.603	6.12
752.353	4.12
753.102	8.12
753.851	7.12
754.6	6.12
755.349	5.12
756.098	10.12
756.847	6.12
757.595	8.12
758.344	8.12
759.093	9.12
759.841	8.12
760.589	10.12
761.338	6.12
762.086	8.12
762.834	8.12
763.582	6.12
764.331	7.12
765.079	7.12
765.826	12.12
766.574	7.12
767.322	9.12
768.07	8.12
768.817	8.12
769.565	6.12
770.312	7.12
771.06	7.12
771.807	8.12
772.554	9.12
773.302	9.12
774.049	10.12
774.796	12.12
775.543	10.12
776.29	10.12
777.036	10.12
777.783	9.12
778.53	13.12
779.276	7.12
780.023	9.12
780.769	10.12
781.516	7.12
782.262	10.12
783.008	11.12
783.754	10.12
784.5	11.12
785.246	12.12
785.992	11.12
786.738	10.12
787.484	11.12
788.23	10.12
788.975	10.12
789.721	10.12
790.466	10.12
791.212	10.12
791.957	9.12
792.702	10.12
793.447	11.12
794.193	10.12
794.938	8.12
795.683	7.12
796.427	8.12
797.172	10.12
797.917	9.12
798.662	7.12
799.406	10.12
800.151	10.12
800.895	9.12
801.64	9.12
802.384	7.12
803.128	10.12
803.872	7.12
804.616	9.12
805.36	9.12
806.104	8.12
806.848	8.12
807.592	8.12
808.336	9.12
809.079	8.12
809.823	6.12
810.566	5.12
811.31	5.12
812.053	6.12
812.796	4.12
813.539	7.12
814.283	7.12
815.026	5.12
815.769	6.12
816.511	4.12
817.254	7.12
817.997	4.12
818.74	6.12
819.482	5.12
820.225	3.12
820.967	4.12
821.71	3.12
822.452	5.12
823.194	7.12
823.936	3.12
824.678	4.12
825.42	5.12
826.162	5.12
826.904	4.12
827.646	4.12
828.388	4.12
829.129	4.12
829.871	5.12
830.612	4.12
831.354	4.12
832.095	3.12
832.836	3.12
833.577	5.12
834.319	1.12
835.06	5.12
835.801	3.12
836.542	4.12
837.282	6.12
838.023	2.12
838.764	4.12
839.504	4.12
840.245	3.12
840.985	4.12
841.726	4.12
842.466	4.12
843.206	1.12
843.946	3.12
844.687	3.12
845.427	5.12
846.166	2.12
846.906	3.12
847.646	3.12
848.386	2.12
849.125	4.12
849.865	4.12
850.605	4.12
851.344	6.12
852.083	3.12
852.823	5.12
853.562	4.12
854.301	3.12
855.04	2.12
855.779	2.12
856.518	1.12
857.257	3.12
857.995	4.12
858.734	2.12
859.473	1.12
860.211	1.12
860.95	1.12
861.688	0.12
862.426	2.12
863.165	3.12
863.903	4.12
864.641	2.12
865.379	2.12
866.117	2.12
866.855	4.12
867.593	2.12
868.33	2.12
869.068	2.12
869.806	2.12
870.543	1.12
871.28	2.12
872.018	2.12
872.755	2.12
873.492	1.12
874.229	0.12
874.967	2.12
875.703	4.12
876.44	0.12
877.177	0.12
877.914	2.12
878.651	1.12
879.387	1.12
880.124	3.12
880.86	0.12
881.597	2.12
882.333	0.12
883.069	-0.88
883.806	1.12
884.542	1.12
885.278	3.12
886.014	-1.88
886.749	-0.88
887.485	0.12
888.221	1.12
888.957	0.12
889.692	-1.88
890.428	1.12
891.163	0.12
891.899	1.12
892.634	-0.88
893.369	2.12
894.104	-0.88
894.839	0.12
895.574	1.12
896.309	0.12
897.044	0.12
897.779	0.12
898.514	0.12
899.248	1.12
899.983	-0.88
900.717	-1.88
901.452	1.12
902.186	-1.88
902.92	0.12
903.654	-0.88
904.389	4.12
905.123	1.12
905.857	0.12
906.59	2.12
907.324	3.12
908.058	2.12
908.792	0.12
909.525	1.12
910.259	-0.88
910.992	-0.88
911.726	0.12
912.459	-1.88
913.192	1.12
913.925	1.12
914.658	2.12
915.391	1.12
916.124	2.12
916.857	1.12
917.59	0.12
918.323	0.12
919.055	2.12
919.788	0.12
920.521	0.12
921.253	-0.88
921.985	0.12
922.718	-0.88
923.45	0.12
924.182	-0.88
924.914	-0.88
925.646	1.12
926.378	1.12
927.11	2.12
927.841	1.12
928.573	-0.88
929.305	-0.88
930.036	-0.88
930.768	-1.88
931.499	0.12
932.23	-0.88
932.962	0.12
933.693	0.12
934.424	1.12
935.155	-1.88
935.886	0.12
936.617	-1.88
937.348	1.12
938.078	1.12
938.809	-1.88
939.54	-1.88
940.27	-1.88
941.001	-0.88
941.731	0.12
942.461	0.12
943.191	0.12
943.922	-1.88
944.652	0.12
945.382	2.12
946.112	-0.88
946.841	0.12
947.571	2.12
948.301	-0.88
949.031	-0.88
949.76	0.12
950.49	0.12
951.219	-1.88
951.948	1.12
952.678	-3.88
953.407	1.12
954.136	1.12
954.865	0.12
955.594	-0.88
956.323	0.12
957.052	0.12
957.78	0.12
958.509	2.12
959.238	1.12
959.966	-0.88
960.695	1.12
961.423	2.12
962.151	0.12
962.88	-1.88
963.608	0.12
964.336	0.12
965.064	0.12
965.792	1.12
966.52	3.12
967.247	0.12
967.975	0.12
968.703	2.12
969.43	3.12
970.158	0.12
970.885	-0.88
971.613	1.12
972.34	1.12
973.067	0.12
973.794	0.12
974.521	1.12
975.248	-1.88
975.975	2.12
976.702	-0.88
977.429	0.12
978.156	2.12
978.882	-1.88
979.609	0.12
980.335	-0.88
981.062	1.12
981.788	-1.88
982.514	0.12
983.24	-0.88
983.967	0.12
984.693	2.12
985.419	1.12
986.144	-0.88
986.87	1.12
987.596	-1.88
988.322	1.12
989.047	0.12
989.773	-0.88
990.498	-0.88
991.224	0.12
991.949	1.12
992.674	0.12
993.399	1.12
994.124	-0.88
994.849	0.12
995.574	2.12
996.299	0.12
997.024	0.12
997.749	0.12
998.473	1.12
999.198	1.12
999.922	-0.88
1000.647	0.12
1001.371	4.12
1002.095	-1.88
1002.82	0.12
1003.544	0.12
1004.268	3.12
1004.992	2.12
1005.716	0.12
1006.439	2.12
1007.163	5.12
1007.887	3.12
1008.611	1.12
1009.334	1.12
1010.058	-0.88
1010.781	-0.88
1011.504	-0.88
1012.228	-1.88
1012.951	-0.88
1013.674	-0.88
1014.397	-0.88
1015.12	0.12
