节点500_425_QEPB04081__618__15-58-35-413.txt的数据

Date: Wed Nov 12 15:58:35 CST 2025
User: PC
Spectrometer: QEPB0408
触发模式: 0
积分时间 (秒): 1.000000E-2
Scans to average: 1
启用暗噪声校正: true
启用非线性校正: false
滑动平均宽度: 0
X轴模式: Wavelengths
Number of Pixels in Spectrum: 1044
>>>>>Begin Spectral Data<<<<<
220.843	3.75
221.644	3.75
222.444	5.75
223.244	2.75
224.045	2.75
224.845	5.75
225.645	3.75
226.445	4.75
227.245	3.75
228.045	5.75
228.845	2.75
229.645	4.75
230.444	8.75
231.244	5.75
232.043	4.75
232.843	7.75
233.642	4.75
234.442	5.75
235.241	3.75
236.04	7.75
236.839	4.75
237.638	4.75
238.437	6.75
239.236	5.75
240.035	6.75
240.833	5.75
241.632	6.75
242.43	8.75
243.229	9.75
244.027	8.75
244.826	3.75
245.624	6.75
246.422	8.75
247.22	7.75
248.018	8.75
248.816	8.75
249.614	8.75
250.412	8.75
251.21	11.75
252.007	8.75
252.805	8.75
253.602	9.75
254.4	9.75
255.197	10.75
255.994	8.75
256.791	11.75
257.589	10.75
258.386	10.75
259.183	10.75
259.979	11.75
260.776	14.75
261.573	12.75
262.37	14.75
263.166	13.75
263.963	14.75
264.759	17.75
265.556	14.75
266.352	18.75
267.148	14.75
267.944	14.75
268.74	16.75
269.536	15.75
270.332	16.75
271.128	17.75
271.924	20.75
272.719	20.75
273.515	18.75
274.311	20.75
275.106	23.75
275.901	19.75
276.697	23.75
277.492	19.75
278.287	19.75
279.082	22.75
279.877	24.75
280.672	18.75
281.467	21.75
282.262	21.75
283.056	22.75
283.851	24.75
284.646	23.75
285.44	24.75
286.234	20.75
287.029	20.75
287.823	22.75
288.617	19.75
289.411	26.75
290.205	23.75
290.999	22.75
291.793	21.75
292.587	20.75
293.381	22.75
294.174	22.75
294.968	21.75
295.761	17.75
296.555	17.75
297.348	19.75
298.141	20.75
298.935	21.75
299.728	18.75
300.521	18.75
301.314	21.75
302.107	18.75
302.899	17.75
303.692	14.75
304.485	17.75
305.277	18.75
306.07	17.75
306.862	16.75
307.655	16.75
308.447	17.75
309.239	13.75
310.031	16.75
310.823	13.75
311.615	13.75
312.407	13.75
313.199	12.75
313.991	11.75
314.783	13.75
315.574	10.75
316.366	10.75
317.157	11.75
317.949	14.75
318.74	14.75
319.531	11.75
320.322	8.75
321.113	9.75
321.904	9.75
322.695	10.75
323.486	8.75
324.277	9.75
325.068	10.75
325.858	9.75
326.649	6.75
327.439	7.75
328.23	7.75
329.02	7.75
329.81	8.75
330.6	7.75
331.391	12.75
332.181	9.75
332.971	7.75
333.76	8.75
334.55	10.75
335.34	9.75
336.13	7.75
336.919	9.75
337.709	8.75
338.498	7.75
339.287	7.75
340.077	6.75
340.866	8.75
341.655	7.75
342.444	9.75
343.233	7.75
344.022	9.75
344.811	8.75
345.6	5.75
346.388	10.75
347.177	8.75
347.965	7.75
348.754	7.75
349.542	8.75
350.33	6.75
351.119	7.75
351.907	7.75
352.695	8.75
353.483	5.75
354.271	7.75
355.059	6.75
355.846	7.75
356.634	7.75
357.422	7.75
358.209	7.75
358.997	7.75
359.784	8.75
360.571	6.75
361.359	9.75
362.146	8.75
362.933	9.75
363.72	8.75
364.507	6.75
365.294	9.75
366.081	6.75
366.867	10.75
367.654	6.75
368.44	5.75
369.227	6.75
370.013	7.75
370.8	8.75
371.586	7.75
372.372	5.75
373.158	5.75
373.944	6.75
374.73	8.75
375.516	5.75
376.302	6.75
377.088	8.75
377.873	6.75
378.659	7.75
379.445	5.75
380.23	7.75
381.015	7.75
381.801	9.75
382.586	8.75
383.371	9.75
384.156	6.75
384.941	5.75
385.726	7.75
386.511	8.75
387.296	4.75
388.08	8.75
388.865	5.75
389.649	9.75
390.434	6.75
391.218	7.75
392.003	5.75
392.787	7.75
393.571	7.75
394.355	5.75
395.139	11.75
395.923	10.75
396.707	7.75
397.491	8.75
398.274	7.75
399.058	7.75
399.842	8.75
400.625	10.75
401.408	8.75
402.192	9.75
402.975	10.75
403.758	11.75
404.541	10.75
405.324	12.75
406.107	8.75
406.89	11.75
407.673	10.75
408.456	12.75
409.238	10.75
410.021	10.75
410.803	10.75
411.586	10.75
412.368	9.75
413.151	11.75
413.933	11.75
414.715	9.75
415.497	10.75
416.279	12.75
417.061	14.75
417.843	14.75
418.624	13.75
419.406	12.75
420.188	12.75
420.969	13.75
421.751	13.75
422.532	13.75
423.313	17.75
424.095	16.75
424.876	15.75
425.657	17.75
426.438	17.75
427.219	17.75
428	16.75
428.78	16.75
429.561	17.75
430.342	18.75
431.122	20.75
431.903	20.75
432.683	22.75
433.464	21.75
434.244	23.75
435.024	25.75
435.804	21.75
436.584	28.75
437.364	26.75
438.144	28.75
438.924	31.75
439.704	32.75
440.483	33.75
441.263	38.75
442.042	41.75
442.822	39.75
443.601	46.75
444.38	48.75
445.16	49.75
445.939	56.75
446.718	62.75
447.497	65.75
448.276	71.75
449.054	74.75
449.833	85.75
450.612	98.75
451.391	105.75
452.169	112.75
452.948	123.75
453.726	135.75
454.504	152.75
455.282	166.75
456.061	184.75
456.839	206.75
457.617	229.75
458.395	249.75
459.172	290.75
459.95	311.75
460.728	357.75
461.506	392.75
462.283	434.75
463.061	481.75
463.838	535.75
464.615	611.75
465.393	658.75
466.17	725.75
466.947	815.75
467.724	910.75
468.501	993.75
469.278	1114.75
470.055	1232.75
470.831	1334.75
471.608	1464.75
472.385	1629.75
473.161	1795.75
473.938	1969.75
474.714	2179.75
475.49	2399.75
476.266	2576.75
477.043	2831.75
477.819	3126.75
478.595	3393.75
479.371	3716.75
480.146	4059.75
480.922	4399.75
481.698	4834.75
482.473	5220.75
483.249	5709.75
484.024	6215.75
484.8	6759.75
485.575	7336.75
486.35	7911.75
487.126	8593.75
487.901	9322.75
488.676	10080.75
489.451	10911.75
490.225	11779.75
491	12723.75
491.775	13742.75
492.55	14752.75
493.324	15843.75
494.099	16877.75
494.873	18034.75
495.647	19267.75
496.422	20412.75
497.196	21681.75
497.97	23042.75
498.744	24265.75
499.518	25535.75
500.292	26632.75
501.066	27821.75
501.839	28893.75
502.613	29866.75
503.387	30629.75
504.16	31379.75
504.934	31915.75
505.707	32201.75
506.48	32228.75
507.253	32368.75
508.027	32353.75
508.8	32118.75
509.573	31714.75
510.346	31255.75
511.118	30492.75
511.891	29762.75
512.664	28966.75
513.437	28026.75
514.209	27045.75
514.982	26219.75
515.754	25273.75
516.526	24247.75
517.298	23354.75
518.071	22297.75
518.843	21460.75
519.615	20626.75
520.387	19768.75
521.159	19069.75
521.93	18364.75
522.702	17584.75
523.474	16936.75
524.245	16300.75
525.017	15569.75
525.788	14856.75
526.56	14223.75
527.331	13637.75
528.102	13033.75
528.873	12482.75
529.644	11898.75
530.415	11381.75
531.186	10835.75
531.957	10311.75
532.728	9749.75
533.498	9267.75
534.269	8753.75
535.039	8337.75
535.81	7897.75
536.58	7461.75
537.351	7064.75
538.121	6670.75
538.891	6300.75
539.661	5982.75
540.431	5658.75
541.201	5356.75
541.971	5103.75
542.741	4840.75
543.51	4597.75
544.28	4363.75
545.05	4153.75
545.819	3957.75
546.588	3740.75
547.358	3551.75
548.127	3411.75
548.896	3212.75
549.665	3055.75
550.434	2926.75
551.203	2762.75
551.972	2619.75
552.741	2487.75
553.51	2321.75
554.278	2214.75
555.047	2094.75
555.815	1974.75
556.584	1871.75
557.352	1772.75
558.121	1658.75
558.889	1586.75
559.657	1503.75
560.425	1425.75
561.193	1336.75
561.961	1259.75
562.729	1185.75
563.496	1125.75
564.264	1078.75
565.032	1015.75
565.799	944.75
566.567	912.75
567.334	851.75
568.101	809.75
568.869	765.75
569.636	725.75
570.403	677.75
571.17	639.75
571.937	602.75
572.704	569.75
573.471	541.75
574.237	500.75
575.004	468.75
575.771	445.75
576.537	434.75
577.303	399.75
578.07	382.75
578.836	363.75
579.602	336.75
580.368	316.75
581.134	303.75
581.9	285.75
582.666	274.75
583.432	263.75
584.198	246.75
584.964	235.75
585.729	219.75
586.495	211.75
587.26	196.75
588.025	187.75
588.791	174.75
589.556	172.75
590.321	157.75
591.086	151.75
591.851	143.75
592.616	140.75
593.381	135.75
594.146	122.75
594.911	119.75
595.675	116.75
596.44	108.75
597.204	102.75
597.969	97.75
598.733	95.75
599.497	92.75
600.261	85.75
601.025	82.75
601.79	79.75
602.553	74.75
603.317	68.75
604.081	64.75
604.845	64.75
605.609	62.75
606.372	58.75
607.136	56.75
607.899	56.75
608.662	52.75
609.426	53.75
610.189	50.75
610.952	46.75
611.715	47.75
612.478	41.75
613.241	43.75
614.004	45.75
614.767	36.75
615.529	38.75
616.292	35.75
617.055	35.75
617.817	33.75
618.579	32.75
619.342	30.75
620.104	30.75
620.866	28.75
621.628	29.75
622.39	28.75
623.152	26.75
623.914	26.75
624.676	26.75
625.438	27.75
626.199	24.75
626.961	19.75
627.722	21.75
628.484	18.75
629.245	18.75
630.006	19.75
630.768	18.75
631.529	20.75
632.29	17.75
633.051	18.75
633.812	18.75
634.573	15.75
635.333	16.75
636.094	11.75
636.855	14.75
637.615	13.75
638.376	16.75
639.136	14.75
639.896	14.75
640.657	14.75
641.417	12.75
642.177	12.75
642.937	9.75
643.697	13.75
644.457	11.75
645.216	10.75
645.976	11.75
646.736	10.75
647.495	10.75
648.255	11.75
649.014	9.75
649.774	10.75
650.533	10.75
651.292	11.75
652.051	9.75
652.81	8.75
653.569	10.75
654.328	7.75
655.087	9.75
655.846	9.75
656.604	7.75
657.363	7.75
658.121	6.75
658.88	8.75
659.638	8.75
660.397	7.75
661.155	10.75
661.913	8.75
662.671	6.75
663.429	5.75
664.187	7.75
664.945	5.75
665.703	6.75
666.46	7.75
667.218	6.75
667.976	6.75
668.733	7.75
669.49	6.75
670.248	9.75
671.005	7.75
671.762	6.75
672.519	7.75
673.276	5.75
674.033	7.75
674.79	6.75
675.547	5.75
676.304	6.75
677.06	7.75
677.817	3.75
678.574	6.75
679.33	6.75
680.086	4.75
680.843	8.75
681.599	4.75
682.355	8.75
683.111	3.75
683.867	5.75
684.623	6.75
685.379	8.75
686.135	8.75
686.89	2.75
687.646	6.75
688.402	4.75
689.157	5.75
689.912	4.75
690.668	3.75
691.423	4.75
692.178	5.75
692.933	4.75
693.688	4.75
694.443	3.75
695.198	4.75
695.953	3.75
696.708	6.75
697.462	4.75
698.217	4.75
698.972	3.75
699.726	6.75
700.48	3.75
701.235	4.75
701.989	6.75
702.743	4.75
703.497	5.75
704.251	5.75
705.005	3.75
705.759	4.75
706.513	3.75
707.266	4.75
708.02	6.75
708.774	4.75
709.527	5.75
710.28	3.75
711.034	5.75
711.787	6.75
712.54	6.75
713.293	6.75
714.046	3.75
714.799	6.75
715.552	2.75
716.305	4.75
717.058	3.75
717.81	3.75
718.563	3.75
719.315	5.75
720.068	4.75
720.82	4.75
721.573	7.75
722.325	6.75
723.077	5.75
723.829	3.75
724.581	5.75
725.333	4.75
726.085	6.75
726.836	3.75
727.588	2.75
728.34	5.75
729.091	5.75
729.843	4.75
730.594	5.75
731.346	6.75
732.097	5.75
732.848	6.75
733.599	5.75
734.35	7.75
735.101	5.75
735.852	6.75
736.603	8.75
737.354	4.75
738.104	7.75
738.855	3.75
739.605	5.75
740.356	6.75
741.106	4.75
741.856	7.75
742.607	4.75
743.357	4.75
744.107	8.75
744.857	5.75
745.607	6.75
746.357	5.75
747.106	4.75
747.856	6.75
748.606	8.75
749.355	8.75
750.105	5.75
750.854	7.75
751.603	7.75
752.353	7.75
753.102	6.75
753.851	7.75
754.6	6.75
755.349	7.75
756.098	9.75
756.847	6.75
757.595	9.75
758.344	7.75
759.093	5.75
759.841	7.75
760.589	7.75
761.338	9.75
762.086	9.75
762.834	9.75
763.582	7.75
764.331	10.75
765.079	7.75
765.826	9.75
766.574	7.75
767.322	7.75
768.07	7.75
768.817	7.75
769.565	9.75
770.312	9.75
771.06	10.75
771.807	10.75
772.554	8.75
773.302	8.75
774.049	11.75
774.796	7.75
775.543	9.75
776.29	10.75
777.036	8.75
777.783	11.75
778.53	7.75
779.276	9.75
780.023	8.75
780.769	9.75
781.516	10.75
782.262	10.75
783.008	9.75
783.754	10.75
784.5	10.75
785.246	8.75
785.992	10.75
786.738	14.75
787.484	9.75
788.23	13.75
788.975	9.75
789.721	10.75
790.466	8.75
791.212	11.75
791.957	7.75
792.702	8.75
793.447	9.75
794.193	9.75
794.938	8.75
795.683	10.75
796.427	9.75
797.172	8.75
797.917	9.75
798.662	10.75
799.406	9.75
800.151	9.75
800.895	7.75
801.64	9.75
802.384	8.75
803.128	8.75
803.872	6.75
804.616	7.75
805.36	7.75
806.104	8.75
806.848	8.75
807.592	8.75
808.336	6.75
809.079	5.75
809.823	6.75
810.566	7.75
811.31	7.75
812.053	8.75
812.796	6.75
813.539	7.75
814.283	6.75
815.026	5.75
815.769	7.75
816.511	4.75
817.254	4.75
817.997	5.75
818.74	3.75
819.482	5.75
820.225	7.75
820.967	8.75
821.71	6.75
822.452	6.75
823.194	3.75
823.936	6.75
824.678	3.75
825.42	6.75
826.162	8.75
826.904	3.75
827.646	4.75
828.388	5.75
829.129	4.75
829.871	4.75
830.612	3.75
831.354	5.75
832.095	3.75
832.836	6.75
833.577	4.75
834.319	5.75
835.06	4.75
835.801	3.75
836.542	4.75
837.282	7.75
838.023	5.75
838.764	3.75
839.504	4.75
840.245	4.75
840.985	3.75
841.726	4.75
842.466	4.75
843.206	5.75
843.946	4.75
844.687	4.75
845.427	5.75
846.166	3.75
846.906	3.75
847.646	2.75
848.386	4.75
849.125	3.75
849.865	1.75
850.605	5.75
851.344	3.75
852.083	4.75
852.823	4.75
853.562	3.75
854.301	1.75
855.04	2.75
855.779	3.75
856.518	3.75
857.257	4.75
857.995	5.75
858.734	3.75
859.473	3.75
860.211	1.75
860.95	3.75
861.688	1.75
862.426	2.75
863.165	2.75
863.903	4.75
864.641	1.75
865.379	2.75
866.117	2.75
866.855	3.75
867.593	2.75
868.33	2.75
869.068	1.75
869.806	2.75
870.543	0.75
871.28	1.75
872.018	-0.25
872.755	-0.25
873.492	1.75
874.229	2.75
874.967	2.75
875.703	1.75
876.44	1.75
877.177	2.75
877.914	0.75
878.651	1.75
879.387	3.75
880.124	1.75
880.86	4.75
881.597	1.75
882.333	0.75
883.069	1.75
883.806	2.75
884.542	2.75
885.278	1.75
886.014	1.75
886.749	0.75
887.485	0.75
888.221	-0.25
888.957	-0.25
889.692	1.75
890.428	1.75
891.163	3.75
891.899	-0.25
892.634	0.75
893.369	1.75
894.104	-0.25
894.839	0.75
895.574	2.75
896.309	0.75
897.044	0.75
897.779	2.75
898.514	1.75
899.248	0.75
899.983	0.75
900.717	1.75
901.452	2.75
902.186	1.75
902.92	-0.25
903.654	-1.25
904.389	-1.25
905.123	0.75
905.857	0.75
906.59	2.75
907.324	-0.25
908.058	0.75
908.792	2.75
909.525	1.75
910.259	-0.25
910.992	1.75
911.726	0.75
912.459	0.75
913.192	0.75
913.925	2.75
914.658	0.75
915.391	-0.25
916.124	-0.25
916.857	-0.25
917.59	1.75
918.323	-0.25
919.055	0.75
919.788	2.75
920.521	-1.25
921.253	-0.25
921.985	1.75
922.718	2.75
923.45	3.75
924.182	2.75
924.914	-1.25
925.646	1.75
926.378	-1.25
927.11	0.75
927.841	0.75
928.573	2.75
929.305	-0.25
930.036	-0.25
930.768	0.75
931.499	1.75
932.23	0.75
932.962	-0.25
933.693	0.75
934.424	0.75
935.155	1.75
935.886	1.75
936.617	1.75
937.348	0.75
938.078	0.75
938.809	2.75
939.54	0.75
940.27	0.75
941.001	1.75
941.731	-0.25
942.461	0.75
943.191	-3.25
943.922	1.75
944.652	1.75
945.382	0.75
946.112	-0.25
946.841	-0.25
947.571	0.75
948.301	0.75
949.031	1.75
949.76	-0.25
950.49	-1.25
951.219	1.75
951.948	-1.25
952.678	0.75
953.407	2.75
954.136	-1.25
954.865	1.75
955.594	-0.25
956.323	0.75
957.052	-1.25
957.78	2.75
958.509	0.75
959.238	1.75
959.966	-0.25
960.695	-2.25
961.423	1.75
962.151	0.75
962.88	1.75
963.608	0.75
964.336	-0.25
965.064	-0.25
965.792	-0.25
966.52	2.75
967.247	0.75
967.975	0.75
968.703	-0.25
969.43	-0.25
970.158	1.75
970.885	-0.25
971.613	0.75
972.34	1.75
973.067	-2.25
973.794	2.75
974.521	-2.25
975.248	1.75
975.975	-0.25
976.702	-0.25
977.429	-1.25
978.156	-2.25
978.882	0.75
979.609	0.75
980.335	0.75
981.062	0.75
981.788	-1.25
982.514	0.75
983.24	0.75
983.967	2.75
984.693	-1.25
985.419	1.75
986.144	1.75
986.87	-1.25
987.596	1.75
988.322	-1.25
989.047	2.75
989.773	0.75
990.498	0.75
991.224	0.75
991.949	-0.25
992.674	2.75
993.399	0.75
994.124	1.75
994.849	0.75
995.574	-0.25
996.299	-0.25
997.024	-0.25
997.749	-0.25
998.473	0.75
999.198	3.75
999.922	0.75
1000.647	-2.25
1001.371	2.75
1002.095	0.75
1002.82	-2.25
1003.544	-1.25
1004.268	2.75
1004.992	2.75
1005.716	2.75
1006.439	2.75
1007.163	2.75
1007.887	2.75
1008.611	0.75
1009.334	-0.25
1010.058	0.75
1010.781	-1.25
1011.504	0.75
1012.228	-0.25
1012.951	0.75
1013.674	-0.25
1014.397	1.75
1015.12	-2.25
