节点500_425_QEPB04081__326__15-53-43-812.txt的数据

Date: Wed Nov 12 15:53:43 CST 2025
User: PC
Spectrometer: QEPB0408
触发模式: 0
积分时间 (秒): 1.000000E-2
Scans to average: 1
启用暗噪声校正: true
启用非线性校正: false
滑动平均宽度: 0
X轴模式: Wavelengths
Number of Pixels in Spectrum: 1044
>>>>>Begin Spectral Data<<<<<
220.843	2.25
221.644	2.25
222.444	4.25
223.244	1.25
224.045	4.25
224.845	3.25
225.645	3.25
226.445	4.25
227.245	4.25
228.045	2.25
228.845	4.25
229.645	5.25
230.444	5.25
231.244	2.25
232.043	5.25
232.843	8.25
233.642	5.25
234.442	2.25
235.241	6.25
236.04	6.25
236.839	9.25
237.638	7.25
238.437	5.25
239.236	6.25
240.035	8.25
240.833	5.25
241.632	6.25
242.43	7.25
243.229	8.25
244.027	6.25
244.826	6.25
245.624	4.25
246.422	9.25
247.22	8.25
248.018	8.25
248.816	10.25
249.614	8.25
250.412	8.25
251.21	9.25
252.007	9.25
252.805	10.25
253.602	11.25
254.4	11.25
255.197	10.25
255.994	11.25
256.791	12.25
257.589	13.25
258.386	12.25
259.183	14.25
259.979	15.25
260.776	15.25
261.573	14.25
262.37	16.25
263.166	15.25
263.963	16.25
264.759	17.25
265.556	17.25
266.352	16.25
267.148	18.25
267.944	18.25
268.74	22.25
269.536	19.25
270.332	20.25
271.128	20.25
271.924	23.25
272.719	22.25
273.515	22.25
274.311	22.25
275.106	22.25
275.901	22.25
276.697	23.25
277.492	22.25
278.287	23.25
279.082	23.25
279.877	22.25
280.672	26.25
281.467	27.25
282.262	24.25
283.056	26.25
283.851	26.25
284.646	25.25
285.44	26.25
286.234	26.25
287.029	22.25
287.823	26.25
288.617	22.25
289.411	27.25
290.205	23.25
290.999	23.25
291.793	22.25
292.587	22.25
293.381	22.25
294.174	22.25
294.968	22.25
295.761	23.25
296.555	20.25
297.348	19.25
298.141	20.25
298.935	23.25
299.728	17.25
300.521	17.25
301.314	18.25
302.107	17.25
302.899	18.25
303.692	14.25
304.485	17.25
305.277	17.25
306.07	15.25
306.862	16.25
307.655	14.25
308.447	14.25
309.239	16.25
310.031	17.25
310.823	13.25
311.615	14.25
312.407	13.25
313.199	12.25
313.991	14.25
314.783	9.25
315.574	11.25
316.366	10.25
317.157	12.25
317.949	12.25
318.74	9.25
319.531	11.25
320.322	10.25
321.113	11.25
321.904	8.25
322.695	9.25
323.486	9.25
324.277	9.25
325.068	8.25
325.858	8.25
326.649	10.25
327.439	7.25
328.23	7.25
329.02	12.25
329.81	10.25
330.6	9.25
331.391	7.25
332.181	7.25
332.971	9.25
333.76	10.25
334.55	8.25
335.34	7.25
336.13	9.25
336.919	7.25
337.709	9.25
338.498	10.25
339.287	8.25
340.077	9.25
340.866	8.25
341.655	6.25
342.444	11.25
343.233	8.25
344.022	7.25
344.811	10.25
345.6	6.25
346.388	8.25
347.177	8.25
347.965	9.25
348.754	8.25
349.542	7.25
350.33	7.25
351.119	6.25
351.907	8.25
352.695	6.25
353.483	9.25
354.271	6.25
355.059	9.25
355.846	8.25
356.634	6.25
357.422	6.25
358.209	8.25
358.997	5.25
359.784	8.25
360.571	8.25
361.359	6.25
362.146	6.25
362.933	7.25
363.72	7.25
364.507	8.25
365.294	9.25
366.081	6.25
366.867	8.25
367.654	9.25
368.44	5.25
369.227	7.25
370.013	3.25
370.8	9.25
371.586	7.25
372.372	7.25
373.158	9.25
373.944	6.25
374.73	6.25
375.516	3.25
376.302	7.25
377.088	7.25
377.873	6.25
378.659	6.25
379.445	6.25
380.23	4.25
381.015	9.25
381.801	7.25
382.586	9.25
383.371	6.25
384.156	7.25
384.941	4.25
385.726	8.25
386.511	7.25
387.296	9.25
388.08	7.25
388.865	7.25
389.649	5.25
390.434	8.25
391.218	6.25
392.003	8.25
392.787	8.25
393.571	5.25
394.355	7.25
395.139	8.25
395.923	7.25
396.707	11.25
397.491	9.25
398.274	8.25
399.058	11.25
399.842	8.25
400.625	9.25
401.408	11.25
402.192	11.25
402.975	10.25
403.758	8.25
404.541	10.25
405.324	10.25
406.107	9.25
406.89	9.25
407.673	10.25
408.456	11.25
409.238	11.25
410.021	12.25
410.803	12.25
411.586	10.25
412.368	12.25
413.151	10.25
413.933	12.25
414.715	11.25
415.497	11.25
416.279	13.25
417.061	12.25
417.843	14.25
418.624	12.25
419.406	11.25
420.188	12.25
420.969	13.25
421.751	15.25
422.532	15.25
423.313	15.25
424.095	16.25
424.876	15.25
425.657	19.25
426.438	14.25
427.219	14.25
428	18.25
428.78	19.25
429.561	17.25
430.342	18.25
431.122	19.25
431.903	18.25
432.683	20.25
433.464	22.25
434.244	22.25
435.024	24.25
435.804	24.25
436.584	26.25
437.364	25.25
438.144	31.25
438.924	28.25
439.704	32.25
440.483	33.25
441.263	34.25
442.042	40.25
442.822	41.25
443.601	43.25
444.38	48.25
445.16	47.25
445.939	50.25
446.718	53.25
447.497	62.25
448.276	67.25
449.054	71.25
449.833	78.25
450.612	86.25
451.391	94.25
452.169	103.25
452.948	116.25
453.726	126.25
454.504	138.25
455.282	152.25
456.061	169.25
456.839	186.25
457.617	209.25
458.395	230.25
459.172	264.25
459.95	289.25
460.728	321.25
461.506	363.25
462.283	412.25
463.061	453.25
463.838	499.25
464.615	562.25
465.393	628.25
466.17	701.25
466.947	783.25
467.724	852.25
468.501	960.25
469.278	1050.25
470.055	1177.25
470.831	1291.25
471.608	1450.25
472.385	1598.25
473.161	1776.25
473.938	1955.25
474.714	2154.25
475.49	2365.25
476.266	2622.25
477.043	2872.25
477.819	3145.25
478.595	3475.25
479.371	3857.25
480.146	4215.25
480.922	4595.25
481.698	5068.25
482.473	5524.25
483.249	6084.25
484.024	6631.25
484.8	7271.25
485.575	7958.25
486.35	8648.25
487.126	9398.25
487.901	10259.25
488.676	11168.25
489.451	12125.25
490.225	13156.25
491	14311.25
491.775	15491.25
492.55	16677.25
493.324	17963.25
494.099	19286.25
494.873	20581.25
495.647	21974.25
496.422	23338.25
497.196	24785.25
497.97	26270.25
498.744	27700.25
499.518	29028.25
500.292	30248.25
501.066	31304.25
501.839	32454.25
502.613	33343.25
503.387	34079.25
504.16	34674.25
504.934	35041.25
505.707	35109.25
506.48	35009.25
507.253	34811.25
508.027	34403.25
508.8	33911.25
509.573	33209.25
510.346	32435.25
511.118	31405.25
511.891	30488.25
512.664	29382.25
513.437	28224.25
514.209	27137.25
514.982	26114.25
515.754	25168.25
516.526	24129.25
517.298	23063.25
518.071	22081.25
518.843	21148.25
519.615	20253.25
520.387	19451.25
521.159	18683.25
521.93	18066.25
522.702	17314.25
523.474	16661.25
524.245	15977.25
525.017	15228.25
525.788	14510.25
526.56	13904.25
527.331	13313.25
528.102	12645.25
528.873	12016.25
529.644	11494.25
530.415	10974.25
531.186	10461.25
531.957	9889.25
532.728	9399.25
533.498	8852.25
534.269	8359.25
535.039	7896.25
535.81	7497.25
536.58	7088.25
537.351	6660.25
538.121	6348.25
538.891	5976.25
539.661	5674.25
540.431	5372.25
541.201	5085.25
541.971	4819.25
542.741	4570.25
543.51	4357.25
544.28	4116.25
545.05	3931.25
545.819	3757.25
546.588	3541.25
547.358	3359.25
548.127	3183.25
548.896	3016.25
549.665	2846.25
550.434	2742.25
551.203	2586.25
551.972	2453.25
552.741	2305.25
553.51	2198.25
554.278	2062.25
555.047	1943.25
555.815	1849.25
556.584	1745.25
557.352	1644.25
558.121	1559.25
558.889	1470.25
559.657	1381.25
560.425	1316.25
561.193	1235.25
561.961	1174.25
562.729	1103.25
563.496	1049.25
564.264	984.25
565.032	936.25
565.799	887.25
566.567	826.25
567.334	790.25
568.101	744.25
568.869	713.25
569.636	658.25
570.403	621.25
571.17	588.25
571.937	556.25
572.704	530.25
573.471	508.25
574.237	473.25
575.004	441.25
575.771	407.25
576.537	393.25
577.303	368.25
578.07	346.25
578.836	334.25
579.602	305.25
580.368	290.25
581.134	277.25
581.9	268.25
582.666	248.25
583.432	241.25
584.198	224.25
584.964	221.25
585.729	203.25
586.495	199.25
587.26	181.25
588.025	179.25
588.791	165.25
589.556	152.25
590.321	150.25
591.086	140.25
591.851	134.25
592.616	128.25
593.381	121.25
594.146	118.25
594.911	112.25
595.675	103.25
596.44	103.25
597.204	90.25
597.969	91.25
598.733	86.25
599.497	87.25
600.261	82.25
601.025	76.25
601.79	68.25
602.553	68.25
603.317	68.25
604.081	66.25
604.845	58.25
605.609	61.25
606.372	60.25
607.136	53.25
607.899	50.25
608.662	48.25
609.426	48.25
610.189	44.25
610.952	49.25
611.715	43.25
612.478	41.25
613.241	38.25
614.004	36.25
614.767	40.25
615.529	38.25
616.292	36.25
617.055	33.25
617.817	32.25
618.579	29.25
619.342	29.25
620.104	29.25
620.866	26.25
621.628	26.25
622.39	27.25
623.152	21.25
623.914	28.25
624.676	22.25
625.438	25.25
626.199	19.25
626.961	21.25
627.722	20.25
628.484	18.25
629.245	19.25
630.006	19.25
630.768	19.25
631.529	19.25
632.29	17.25
633.051	17.25
633.812	16.25
634.573	17.25
635.333	14.25
636.094	16.25
636.855	16.25
637.615	13.25
638.376	16.25
639.136	15.25
639.896	13.25
640.657	12.25
641.417	13.25
642.177	13.25
642.937	11.25
643.697	12.25
644.457	10.25
645.216	13.25
645.976	12.25
646.736	9.25
647.495	13.25
648.255	10.25
649.014	9.25
649.774	10.25
650.533	9.25
651.292	10.25
652.051	8.25
652.81	8.25
653.569	8.25
654.328	10.25
655.087	9.25
655.846	7.25
656.604	10.25
657.363	7.25
658.121	8.25
658.88	7.25
659.638	8.25
660.397	7.25
661.155	8.25
661.913	8.25
662.671	7.25
663.429	10.25
664.187	7.25
664.945	7.25
665.703	7.25
666.46	6.25
667.218	6.25
667.976	6.25
668.733	8.25
669.49	8.25
670.248	7.25
671.005	6.25
671.762	6.25
672.519	4.25
673.276	7.25
674.033	5.25
674.79	7.25
675.547	6.25
676.304	4.25
677.06	6.25
677.817	5.25
678.574	4.25
679.33	5.25
680.086	6.25
680.843	4.25
681.599	7.25
682.355	5.25
683.111	7.25
683.867	4.25
684.623	3.25
685.379	3.25
686.135	5.25
686.89	4.25
687.646	6.25
688.402	5.25
689.157	4.25
689.912	5.25
690.668	4.25
691.423	2.25
692.178	6.25
692.933	3.25
693.688	8.25
694.443	4.25
695.198	2.25
695.953	6.25
696.708	7.25
697.462	1.25
698.217	7.25
698.972	5.25
699.726	6.25
700.48	6.25
701.235	4.25
701.989	8.25
702.743	5.25
703.497	6.25
704.251	6.25
705.005	5.25
705.759	6.25
706.513	3.25
707.266	5.25
708.02	2.25
708.774	8.25
709.527	4.25
710.28	3.25
711.034	4.25
711.787	5.25
712.54	4.25
713.293	4.25
714.046	2.25
714.799	5.25
715.552	2.25
716.305	8.25
717.058	3.25
717.81	6.25
718.563	5.25
719.315	5.25
720.068	5.25
720.82	4.25
721.573	6.25
722.325	2.25
723.077	6.25
723.829	6.25
724.581	5.25
725.333	5.25
726.085	4.25
726.836	7.25
727.588	6.25
728.34	4.25
729.091	4.25
729.843	3.25
730.594	5.25
731.346	5.25
732.097	5.25
732.848	4.25
733.599	5.25
734.35	7.25
735.101	6.25
735.852	7.25
736.603	7.25
737.354	6.25
738.104	7.25
738.855	7.25
739.605	6.25
740.356	3.25
741.106	6.25
741.856	7.25
742.607	7.25
743.357	8.25
744.107	7.25
744.857	8.25
745.607	7.25
746.357	8.25
747.106	8.25
747.856	8.25
748.606	7.25
749.355	7.25
750.105	5.25
750.854	8.25
751.603	5.25
752.353	7.25
753.102	7.25
753.851	9.25
754.6	8.25
755.349	9.25
756.098	9.25
756.847	11.25
757.595	9.25
758.344	7.25
759.093	7.25
759.841	10.25
760.589	7.25
761.338	8.25
762.086	8.25
762.834	7.25
763.582	8.25
764.331	10.25
765.079	10.25
765.826	9.25
766.574	9.25
767.322	8.25
768.07	12.25
768.817	11.25
769.565	9.25
770.312	9.25
771.06	9.25
771.807	13.25
772.554	10.25
773.302	9.25
774.049	12.25
774.796	12.25
775.543	13.25
776.29	9.25
777.036	12.25
777.783	9.25
778.53	9.25
779.276	11.25
780.023	9.25
780.769	12.25
781.516	10.25
782.262	9.25
783.008	10.25
783.754	11.25
784.5	11.25
785.246	13.25
785.992	12.25
786.738	11.25
787.484	10.25
788.23	12.25
788.975	12.25
789.721	12.25
790.466	8.25
791.212	11.25
791.957	11.25
792.702	12.25
793.447	12.25
794.193	9.25
794.938	12.25
795.683	10.25
796.427	10.25
797.172	11.25
797.917	9.25
798.662	11.25
799.406	9.25
800.151	9.25
800.895	6.25
801.64	7.25
802.384	11.25
803.128	8.25
803.872	12.25
804.616	9.25
805.36	6.25
806.104	8.25
806.848	8.25
807.592	8.25
808.336	6.25
809.079	6.25
809.823	7.25
810.566	7.25
811.31	8.25
812.053	7.25
812.796	5.25
813.539	6.25
814.283	6.25
815.026	6.25
815.769	7.25
816.511	8.25
817.254	6.25
817.997	7.25
818.74	6.25
819.482	7.25
820.225	6.25
820.967	7.25
821.71	5.25
822.452	5.25
823.194	4.25
823.936	6.25
824.678	6.25
825.42	6.25
826.162	5.25
826.904	4.25
827.646	3.25
828.388	5.25
829.129	6.25
829.871	3.25
830.612	6.25
831.354	6.25
832.095	4.25
832.836	6.25
833.577	3.25
834.319	6.25
835.06	7.25
835.801	5.25
836.542	6.25
837.282	5.25
838.023	4.25
838.764	3.25
839.504	5.25
840.245	4.25
840.985	1.25
841.726	5.25
842.466	4.25
843.206	3.25
843.946	4.25
844.687	5.25
845.427	4.25
846.166	4.25
846.906	4.25
847.646	2.25
848.386	4.25
849.125	5.25
849.865	6.25
850.605	3.25
851.344	1.25
852.083	3.25
852.823	3.25
853.562	2.25
854.301	0.25
855.04	0.25
855.779	2.25
856.518	0.25
857.257	0.25
857.995	1.25
858.734	2.25
859.473	2.25
860.211	1.25
860.95	2.25
861.688	2.25
862.426	2.25
863.165	4.25
863.903	3.25
864.641	1.25
865.379	-0.75
866.117	2.25
866.855	2.25
867.593	2.25
868.33	2.25
869.068	4.25
869.806	2.25
870.543	1.25
871.28	1.25
872.018	4.25
872.755	1.25
873.492	0.25
874.229	0.25
874.967	2.25
875.703	3.25
876.44	1.25
877.177	1.25
877.914	1.25
878.651	2.25
879.387	1.25
880.124	2.25
880.86	2.25
881.597	0.25
882.333	3.25
883.069	-0.75
883.806	2.25
884.542	0.25
885.278	2.25
886.014	2.25
886.749	3.25
887.485	1.25
888.221	0.25
888.957	2.25
889.692	0.25
890.428	-0.75
891.163	0.25
891.899	2.25
892.634	0.25
893.369	-1.75
894.104	3.25
894.839	1.25
895.574	0.25
896.309	0.25
897.044	0.25
897.779	0.25
898.514	2.25
899.248	0.25
899.983	1.25
900.717	-1.75
901.452	1.25
902.186	0.25
902.92	-1.75
903.654	0.25
904.389	1.25
905.123	1.25
905.857	-1.75
906.59	1.25
907.324	-0.75
908.058	-0.75
908.792	1.25
909.525	1.25
910.259	1.25
910.992	-0.75
911.726	3.25
912.459	1.25
913.192	-1.75
913.925	-1.75
914.658	-1.75
915.391	2.25
916.124	1.25
916.857	0.25
917.59	1.25
918.323	-1.75
919.055	-1.75
919.788	-2.75
920.521	0.25
921.253	1.25
921.985	0.25
922.718	-0.75
923.45	1.25
924.182	-0.75
924.914	-0.75
925.646	-1.75
926.378	2.25
927.11	0.25
927.841	1.25
928.573	-0.75
929.305	1.25
930.036	2.25
930.768	0.25
931.499	0.25
932.23	-0.75
932.962	1.25
933.693	1.25
934.424	0.25
935.155	2.25
935.886	-1.75
936.617	-0.75
937.348	-0.75
938.078	2.25
938.809	0.25
939.54	0.25
940.27	-0.75
941.001	-0.75
941.731	2.25
942.461	-0.75
943.191	0.25
943.922	1.25
944.652	-0.75
945.382	1.25
946.112	-1.75
946.841	1.25
947.571	-2.75
948.301	-1.75
949.031	-1.75
949.76	0.25
950.49	0.25
951.219	0.25
951.948	0.25
952.678	2.25
953.407	-1.75
954.136	-0.75
954.865	-1.75
955.594	2.25
956.323	-0.75
957.052	0.25
957.78	1.25
958.509	0.25
959.238	-0.75
959.966	0.25
960.695	0.25
961.423	1.25
962.151	0.25
962.88	2.25
963.608	0.25
964.336	0.25
965.064	0.25
965.792	2.25
966.52	3.25
967.247	-0.75
967.975	0.25
968.703	0.25
969.43	2.25
970.158	0.25
970.885	-0.75
971.613	-0.75
972.34	0.25
973.067	-1.75
973.794	-1.75
974.521	-0.75
975.248	-0.75
975.975	1.25
976.702	0.25
977.429	-1.75
978.156	1.25
978.882	-0.75
979.609	1.25
980.335	-0.75
981.062	1.25
981.788	-0.75
982.514	-2.75
983.24	0.25
983.967	1.25
984.693	0.25
985.419	-0.75
986.144	-1.75
986.87	-0.75
987.596	-1.75
988.322	0.25
989.047	2.25
989.773	2.25
990.498	1.25
991.224	0.25
991.949	1.25
992.674	0.25
993.399	-1.75
994.124	-0.75
994.849	1.25
995.574	-0.75
996.299	-0.75
997.024	-0.75
997.749	1.25
998.473	2.25
999.198	0.25
999.922	-1.75
1000.647	0.25
1001.371	4.25
1002.095	0.25
1002.82	0.25
1003.544	-0.75
1004.268	3.25
1004.992	1.25
1005.716	1.25
1006.439	1.25
1007.163	2.25
1007.887	1.25
1008.611	0.25
1009.334	0.25
1010.058	-0.75
1010.781	0.25
1011.504	0.25
1012.228	-1.75
1012.951	-0.75
1013.674	-1.75
1014.397	-1.75
1015.12	0.25
