节点500_425_QEPB04081__559__15-57-36-476.txt的数据

Date: Wed Nov 12 15:57:36 CST 2025
User: PC
Spectrometer: QEPB0408
触发模式: 0
积分时间 (秒): 1.000000E-2
Scans to average: 1
启用暗噪声校正: true
启用非线性校正: false
滑动平均宽度: 0
X轴模式: Wavelengths
Number of Pixels in Spectrum: 1044
>>>>>Begin Spectral Data<<<<<
220.843	1
221.644	3
222.444	1
223.244	3
224.045	1
224.845	3
225.645	4
226.445	1
227.245	5
228.045	5
228.845	7
229.645	3
230.444	2
231.244	6
232.043	6
232.843	5
233.642	6
234.442	6
235.241	8
236.04	4
236.839	5
237.638	7
238.437	7
239.236	7
240.035	4
240.833	7
241.632	6
242.43	8
243.229	6
244.027	5
244.826	9
245.624	8
246.422	7
247.22	8
248.018	8
248.816	9
249.614	7
250.412	11
251.21	7
252.007	10
252.805	8
253.602	8
254.4	9
255.197	10
255.994	12
256.791	10
257.589	10
258.386	12
259.183	10
259.979	15
260.776	12
261.573	14
262.37	14
263.166	15
263.963	14
264.759	15
265.556	16
266.352	16
267.148	14
267.944	16
268.74	17
269.536	18
270.332	18
271.128	21
271.924	20
272.719	20
273.515	20
274.311	18
275.106	20
275.901	22
276.697	18
277.492	19
278.287	22
279.082	23
279.877	24
280.672	22
281.467	21
282.262	21
283.056	24
283.851	19
284.646	24
285.44	22
286.234	21
287.029	24
287.823	25
288.617	23
289.411	21
290.205	23
290.999	24
291.793	20
292.587	23
293.381	21
294.174	20
294.968	20
295.761	20
296.555	17
297.348	18
298.141	19
298.935	18
299.728	19
300.521	20
301.314	17
302.107	18
302.899	17
303.692	15
304.485	19
305.277	18
306.07	15
306.862	14
307.655	16
308.447	15
309.239	16
310.031	12
310.823	10
311.615	12
312.407	12
313.199	13
313.991	13
314.783	11
315.574	10
316.366	14
317.157	14
317.949	10
318.74	10
319.531	12
320.322	9
321.113	9
321.904	8
322.695	9
323.486	6
324.277	10
325.068	8
325.858	7
326.649	8
327.439	8
328.23	8
329.02	9
329.81	6
330.6	10
331.391	7
332.181	8
332.971	8
333.76	8
334.55	10
335.34	8
336.13	9
336.919	9
337.709	9
338.498	7
339.287	7
340.077	9
340.866	8
341.655	8
342.444	7
343.233	6
344.022	9
344.811	8
345.6	8
346.388	6
347.177	4
347.965	9
348.754	7
349.542	8
350.33	7
351.119	4
351.907	10
352.695	6
353.483	7
354.271	9
355.059	6
355.846	6
356.634	7
357.422	8
358.209	6
358.997	8
359.784	5
360.571	6
361.359	6
362.146	8
362.933	9
363.72	7
364.507	6
365.294	5
366.081	7
366.867	6
367.654	5
368.44	8
369.227	6
370.013	7
370.8	7
371.586	4
372.372	5
373.158	6
373.944	7
374.73	6
375.516	7
376.302	7
377.088	8
377.873	8
378.659	7
379.445	8
380.23	9
381.015	6
381.801	7
382.586	5
383.371	5
384.156	7
384.941	7
385.726	7
386.511	6
387.296	8
388.08	8
388.865	8
389.649	7
390.434	6
391.218	8
392.003	8
392.787	5
393.571	7
394.355	8
395.139	10
395.923	6
396.707	8
397.491	7
398.274	8
399.058	9
399.842	8
400.625	9
401.408	8
402.192	8
402.975	8
403.758	10
404.541	10
405.324	10
406.107	10
406.89	7
407.673	9
408.456	10
409.238	9
410.021	13
410.803	11
411.586	10
412.368	8
413.151	12
413.933	11
414.715	13
415.497	11
416.279	12
417.061	11
417.843	13
418.624	15
419.406	14
420.188	12
420.969	14
421.751	13
422.532	14
423.313	14
424.095	16
424.876	17
425.657	15
426.438	16
427.219	18
428	18
428.78	20
429.561	19
430.342	21
431.122	17
431.903	19
432.683	19
433.464	23
434.244	23
435.024	23
435.804	24
436.584	26
437.364	27
438.144	30
438.924	31
439.704	31
440.483	32
441.263	35
442.042	37
442.822	41
443.601	43
444.38	48
445.16	49
445.939	59
446.718	60
447.497	62
448.276	72
449.054	76
449.833	85
450.612	93
451.391	101
452.169	114
452.948	122
453.726	132
454.504	150
455.282	169
456.061	182
456.839	203
457.617	227
458.395	259
459.172	283
459.95	313
460.728	343
461.506	394
462.283	427
463.061	480
463.838	539
464.615	599
465.393	658
466.17	738
466.947	814
467.724	899
468.501	1011
469.278	1115
470.055	1203
470.831	1332
471.608	1471
472.385	1635
473.161	1812
473.938	1976
474.714	2183
475.49	2378
476.266	2581
477.043	2828
477.819	3134
478.595	3387
479.371	3728
480.146	4075
480.922	4432
481.698	4837
482.473	5247
483.249	5698
484.024	6221
484.8	6780
485.575	7352
486.35	8008
487.126	8631
487.901	9347
488.676	10209
489.451	11000
490.225	11861
491	12814
491.775	13842
492.55	14828
493.324	15961
494.099	17051
494.873	18173
495.647	19402
496.422	20621
497.196	21864
497.97	23207
498.744	24477
499.518	25747
500.292	26844
501.066	27905
501.839	29071
502.613	30084
503.387	30885
504.16	31501
504.934	32060
505.707	32342
506.48	32448
507.253	32442
508.027	32459
508.8	32154
509.573	31796
510.346	31278
511.118	30589
511.891	29817
512.664	28950
513.437	27993
514.209	26986
514.982	26151
515.754	25244
516.526	24211
517.298	23258
518.071	22348
518.843	21376
519.615	20541
520.387	19778
521.159	19029
521.93	18333
522.702	17534
523.474	16875
524.245	16226
525.017	15539
525.788	14835
526.56	14161
527.331	13579
528.102	12965
528.873	12413
529.644	11793
530.415	11290
531.186	10837
531.957	10304
532.728	9816
533.498	9201
534.269	8752
535.039	8282
535.81	7863
536.58	7457
537.351	7020
538.121	6645
538.891	6285
539.661	5939
540.431	5666
541.201	5361
541.971	5062
542.741	4801
543.51	4574
544.28	4318
545.05	4129
545.819	3926
546.588	3752
547.358	3541
548.127	3357
548.896	3181
549.665	3049
550.434	2896
551.203	2739
551.972	2597
552.741	2470
553.51	2357
554.278	2194
555.047	2076
555.815	1976
556.584	1869
557.352	1771
558.121	1656
558.889	1564
559.657	1482
560.425	1386
561.193	1319
561.961	1244
562.729	1192
563.496	1130
564.264	1053
565.032	1004
565.799	948
566.567	897
567.334	839
568.101	805
568.869	768
569.636	714
570.403	673
571.17	627
571.937	606
572.704	568
573.471	545
574.237	512
575.004	478
575.771	455
576.537	420
577.303	402
578.07	373
578.836	353
579.602	329
580.368	316
581.134	307
581.9	283
582.666	271
583.432	258
584.198	245
584.964	227
585.729	221
586.495	210
587.26	200
588.025	186
588.791	175
589.556	162
590.321	159
591.086	149
591.851	141
592.616	137
593.381	128
594.146	123
594.911	117
595.675	109
596.44	104
597.204	100
597.969	93
598.733	93
599.497	87
600.261	86
601.025	85
601.79	81
602.553	73
603.317	72
604.081	68
604.845	68
605.609	63
606.372	59
607.136	59
607.899	53
608.662	51
609.426	48
610.189	48
610.952	46
611.715	43
612.478	44
613.241	41
614.004	42
614.767	37
615.529	36
616.292	36
617.055	37
617.817	37
618.579	31
619.342	32
620.104	33
620.866	28
621.628	28
622.39	24
623.152	25
623.914	26
624.676	27
625.438	21
626.199	21
626.961	24
627.722	19
628.484	21
629.245	21
630.006	19
630.768	20
631.529	17
632.29	19
633.051	18
633.812	17
634.573	18
635.333	15
636.094	17
636.855	14
637.615	15
638.376	14
639.136	12
639.896	12
640.657	14
641.417	11
642.177	11
642.937	12
643.697	13
644.457	9
645.216	12
645.976	12
646.736	10
647.495	11
648.255	9
649.014	10
649.774	7
650.533	8
651.292	10
652.051	9
652.81	8
653.569	9
654.328	8
655.087	6
655.846	8
656.604	10
657.363	10
658.121	8
658.88	8
659.638	9
660.397	8
661.155	7
661.913	5
662.671	5
663.429	8
664.187	8
664.945	9
665.703	7
666.46	5
667.218	5
667.976	7
668.733	7
669.49	6
670.248	6
671.005	6
671.762	6
672.519	5
673.276	6
674.033	6
674.79	6
675.547	7
676.304	3
677.06	4
677.817	7
678.574	5
679.33	5
680.086	4
680.843	4
681.599	4
682.355	4
683.111	5
683.867	6
684.623	4
685.379	6
686.135	4
686.89	5
687.646	6
688.402	3
689.157	8
689.912	3
690.668	4
691.423	3
692.178	4
692.933	8
693.688	6
694.443	2
695.198	2
695.953	6
696.708	4
697.462	5
698.217	5
698.972	5
699.726	5
700.48	4
701.235	6
701.989	2
702.743	4
703.497	6
704.251	7
705.005	4
705.759	5
706.513	4
707.266	4
708.02	4
708.774	4
709.527	4
710.28	5
711.034	4
711.787	3
712.54	3
713.293	4
714.046	8
714.799	4
715.552	4
716.305	4
717.058	6
717.81	4
718.563	4
719.315	6
720.068	6
720.82	5
721.573	4
722.325	5
723.077	6
723.829	4
724.581	6
725.333	5
726.085	7
726.836	5
727.588	4
728.34	8
729.091	5
729.843	5
730.594	5
731.346	5
732.097	4
732.848	4
733.599	6
734.35	3
735.101	4
735.852	5
736.603	5
737.354	6
738.104	4
738.855	4
739.605	8
740.356	6
741.106	6
741.856	6
742.607	6
743.357	3
744.107	5
744.857	5
745.607	5
746.357	4
747.106	6
747.856	7
748.606	7
749.355	6
750.105	7
750.854	6
751.603	6
752.353	4
753.102	8
753.851	7
754.6	7
755.349	5
756.098	8
756.847	8
757.595	7
758.344	6
759.093	7
759.841	8
760.589	7
761.338	6
762.086	5
762.834	6
763.582	5
764.331	9
765.079	7
765.826	7
766.574	7
767.322	9
768.07	9
768.817	7
769.565	10
770.312	8
771.06	9
771.807	7
772.554	9
773.302	9
774.049	10
774.796	9
775.543	9
776.29	10
777.036	10
777.783	9
778.53	9
779.276	8
780.023	9
780.769	9
781.516	10
782.262	10
783.008	10
783.754	10
784.5	10
785.246	11
785.992	9
786.738	9
787.484	11
788.23	11
788.975	10
789.721	11
790.466	8
791.212	10
791.957	10
792.702	10
793.447	10
794.193	11
794.938	12
795.683	10
796.427	10
797.172	9
797.917	9
798.662	10
799.406	8
800.151	9
800.895	8
801.64	8
802.384	8
803.128	9
803.872	9
804.616	7
805.36	7
806.104	7
806.848	7
807.592	6
808.336	7
809.079	6
809.823	8
810.566	7
811.31	5
812.053	7
812.796	7
813.539	6
814.283	7
815.026	5
815.769	5
816.511	4
817.254	6
817.997	6
818.74	5
819.482	6
820.225	6
820.967	6
821.71	6
822.452	2
823.194	5
823.936	6
824.678	5
825.42	4
826.162	5
826.904	5
827.646	4
828.388	6
829.129	4
829.871	6
830.612	6
831.354	2
832.095	5
832.836	5
833.577	4
834.319	6
835.06	4
835.801	4
836.542	2
837.282	5
838.023	2
838.764	5
839.504	3
840.245	2
840.985	4
841.726	4
842.466	4
843.206	4
843.946	4
844.687	3
845.427	3
846.166	3
846.906	4
847.646	2
848.386	5
849.125	2
849.865	4
850.605	3
851.344	6
852.083	3
852.823	5
853.562	3
854.301	4
855.04	2
855.779	2
856.518	2
857.257	6
857.995	3
858.734	3
859.473	2
860.211	3
860.95	3
861.688	1
862.426	4
863.165	3
863.903	3
864.641	3
865.379	2
866.117	2
866.855	1
867.593	2
868.33	0
869.068	2
869.806	0
870.543	3
871.28	2
872.018	1
872.755	2
873.492	-1
874.229	2
874.967	1
875.703	1
876.44	2
877.177	-1
877.914	1
878.651	0
879.387	1
880.124	-2
880.86	2
881.597	-1
882.333	1
883.069	3
883.806	1
884.542	-1
885.278	1
886.014	3
886.749	-1
887.485	1
888.221	2
888.957	2
889.692	2
890.428	1
891.163	0
891.899	1
892.634	2
893.369	-1
894.104	0
894.839	1
895.574	4
896.309	2
897.044	0
897.779	1
898.514	1
899.248	0
899.983	1
900.717	0
901.452	1
902.186	-2
902.92	1
903.654	0
904.389	0
905.123	-1
905.857	-3
906.59	1
907.324	0
908.058	0
908.792	2
909.525	1
910.259	-1
910.992	1
911.726	1
912.459	0
913.192	1
913.925	2
914.658	-1
915.391	-1
916.124	0
916.857	0
917.59	1
918.323	-1
919.055	2
919.788	1
920.521	2
921.253	-3
921.985	0
922.718	0
923.45	2
924.182	-1
924.914	0
925.646	-1
926.378	-2
927.11	0
927.841	-2
928.573	0
929.305	3
930.036	0
930.768	-1
931.499	-1
932.23	-1
932.962	2
933.693	1
934.424	1
935.155	0
935.886	2
936.617	-1
937.348	0
938.078	0
938.809	0
939.54	0
940.27	-1
941.001	-1
941.731	1
942.461	-2
943.191	0
943.922	-2
944.652	0
945.382	-1
946.112	-1
946.841	0
947.571	-2
948.301	2
949.031	-3
949.76	-2
950.49	-1
951.219	-1
951.948	1
952.678	2
953.407	2
954.136	1
954.865	-1
955.594	2
956.323	-2
957.052	0
957.78	-1
958.509	0
959.238	-2
959.966	-2
960.695	3
961.423	-2
962.151	-2
962.88	1
963.608	1
964.336	2
965.064	0
965.792	1
966.52	-1
967.247	0
967.975	0
968.703	-2
969.43	0
970.158	-2
970.885	-1
971.613	0
972.34	0
973.067	0
973.794	0
974.521	0
975.248	-1
975.975	0
976.702	0
977.429	0
978.156	0
978.882	1
979.609	0
980.335	0
981.062	0
981.788	0
982.514	0
983.24	-1
983.967	1
984.693	-1
985.419	-2
986.144	-1
986.87	1
987.596	0
988.322	-1
989.047	1
989.773	-1
990.498	0
991.224	-3
991.949	1
992.674	0
993.399	0
994.124	0
994.849	1
995.574	1
996.299	-1
997.024	1
997.749	0
998.473	0
999.198	2
999.922	1
1000.647	2
1001.371	4
1002.095	0
1002.82	0
1003.544	-2
1004.268	4
1004.992	0
1005.716	3
1006.439	2
1007.163	1
1007.887	3
1008.611	0
1009.334	1
1010.058	0
1010.781	0
1011.504	0
1012.228	2
1012.951	-1
1013.674	-1
1014.397	0
1015.12	0
