节点500_425_QEPB04081__388__15-54-45-740.txt的数据

Date: Wed Nov 12 15:54:45 CST 2025
User: PC
Spectrometer: QEPB0408
触发模式: 0
积分时间 (秒): 1.000000E-2
Scans to average: 1
启用暗噪声校正: true
启用非线性校正: false
滑动平均宽度: 0
X轴模式: Wavelengths
Number of Pixels in Spectrum: 1044
>>>>>Begin Spectral Data<<<<<
220.843	4.25
221.644	3.25
222.444	3.25
223.244	2.25
224.045	2.25
224.845	4.25
225.645	6.25
226.445	1.25
227.245	0.25
228.045	4.25
228.845	2.25
229.645	4.25
230.444	1.25
231.244	4.25
232.043	6.25
232.843	6.25
233.642	4.25
234.442	5.25
235.241	8.25
236.04	4.25
236.839	6.25
237.638	6.25
238.437	4.25
239.236	4.25
240.035	7.25
240.833	7.25
241.632	8.25
242.43	6.25
243.229	4.25
244.027	7.25
244.826	6.25
245.624	9.25
246.422	8.25
247.22	6.25
248.018	7.25
248.816	8.25
249.614	11.25
250.412	7.25
251.21	10.25
252.007	10.25
252.805	11.25
253.602	10.25
254.4	13.25
255.197	10.25
255.994	15.25
256.791	12.25
257.589	15.25
258.386	13.25
259.183	13.25
259.979	12.25
260.776	12.25
261.573	14.25
262.37	14.25
263.166	15.25
263.963	14.25
264.759	13.25
265.556	17.25
266.352	13.25
267.148	17.25
267.944	16.25
268.74	17.25
269.536	19.25
270.332	20.25
271.128	20.25
271.924	19.25
272.719	23.25
273.515	19.25
274.311	19.25
275.106	22.25
275.901	22.25
276.697	25.25
277.492	20.25
278.287	25.25
279.082	24.25
279.877	22.25
280.672	25.25
281.467	24.25
282.262	25.25
283.056	25.25
283.851	23.25
284.646	23.25
285.44	23.25
286.234	23.25
287.029	20.25
287.823	24.25
288.617	21.25
289.411	21.25
290.205	24.25
290.999	23.25
291.793	23.25
292.587	20.25
293.381	24.25
294.174	23.25
294.968	24.25
295.761	22.25
296.555	20.25
297.348	20.25
298.141	18.25
298.935	21.25
299.728	18.25
300.521	17.25
301.314	19.25
302.107	18.25
302.899	14.25
303.692	16.25
304.485	13.25
305.277	18.25
306.07	13.25
306.862	17.25
307.655	14.25
308.447	16.25
309.239	18.25
310.031	15.25
310.823	13.25
311.615	14.25
312.407	13.25
313.199	12.25
313.991	11.25
314.783	12.25
315.574	13.25
316.366	11.25
317.157	12.25
317.949	9.25
318.74	12.25
319.531	10.25
320.322	11.25
321.113	11.25
321.904	8.25
322.695	10.25
323.486	9.25
324.277	14.25
325.068	8.25
325.858	9.25
326.649	9.25
327.439	11.25
328.23	9.25
329.02	10.25
329.81	9.25
330.6	9.25
331.391	8.25
332.181	8.25
332.971	8.25
333.76	10.25
334.55	6.25
335.34	10.25
336.13	8.25
336.919	7.25
337.709	6.25
338.498	7.25
339.287	10.25
340.077	10.25
340.866	7.25
341.655	6.25
342.444	8.25
343.233	7.25
344.022	5.25
344.811	8.25
345.6	7.25
346.388	7.25
347.177	10.25
347.965	8.25
348.754	9.25
349.542	7.25
350.33	8.25
351.119	8.25
351.907	7.25
352.695	9.25
353.483	8.25
354.271	7.25
355.059	8.25
355.846	8.25
356.634	4.25
357.422	8.25
358.209	7.25
358.997	7.25
359.784	7.25
360.571	8.25
361.359	7.25
362.146	8.25
362.933	7.25
363.72	7.25
364.507	6.25
365.294	7.25
366.081	3.25
366.867	6.25
367.654	6.25
368.44	7.25
369.227	7.25
370.013	7.25
370.8	7.25
371.586	9.25
372.372	5.25
373.158	6.25
373.944	8.25
374.73	6.25
375.516	8.25
376.302	6.25
377.088	7.25
377.873	5.25
378.659	9.25
379.445	4.25
380.23	6.25
381.015	8.25
381.801	6.25
382.586	6.25
383.371	6.25
384.156	6.25
384.941	7.25
385.726	6.25
386.511	8.25
387.296	7.25
388.08	8.25
388.865	6.25
389.649	7.25
390.434	8.25
391.218	6.25
392.003	10.25
392.787	9.25
393.571	7.25
394.355	7.25
395.139	7.25
395.923	10.25
396.707	7.25
397.491	7.25
398.274	9.25
399.058	8.25
399.842	10.25
400.625	8.25
401.408	11.25
402.192	9.25
402.975	10.25
403.758	8.25
404.541	10.25
405.324	10.25
406.107	9.25
406.89	10.25
407.673	8.25
408.456	11.25
409.238	10.25
410.021	9.25
410.803	11.25
411.586	11.25
412.368	10.25
413.151	11.25
413.933	12.25
414.715	10.25
415.497	12.25
416.279	13.25
417.061	12.25
417.843	12.25
418.624	14.25
419.406	10.25
420.188	14.25
420.969	13.25
421.751	15.25
422.532	15.25
423.313	15.25
424.095	17.25
424.876	18.25
425.657	15.25
426.438	17.25
427.219	19.25
428	16.25
428.78	18.25
429.561	16.25
430.342	16.25
431.122	22.25
431.903	22.25
432.683	22.25
433.464	19.25
434.244	25.25
435.024	26.25
435.804	25.25
436.584	27.25
437.364	28.25
438.144	27.25
438.924	28.25
439.704	32.25
440.483	34.25
441.263	36.25
442.042	38.25
442.822	42.25
443.601	45.25
444.38	44.25
445.16	50.25
445.939	54.25
446.718	57.25
447.497	64.25
448.276	68.25
449.054	71.25
449.833	80.25
450.612	87.25
451.391	95.25
452.169	102.25
452.948	116.25
453.726	128.25
454.504	143.25
455.282	159.25
456.061	177.25
456.839	189.25
457.617	214.25
458.395	237.25
459.172	263.25
459.95	295.25
460.728	322.25
461.506	366.25
462.283	411.25
463.061	456.25
463.838	504.25
464.615	568.25
465.393	631.25
466.17	711.25
466.947	780.25
467.724	867.25
468.501	972.25
469.278	1069.25
470.055	1181.25
470.831	1319.25
471.608	1461.25
472.385	1610.25
473.161	1792.25
473.938	1960.25
474.714	2149.25
475.49	2392.25
476.266	2610.25
477.043	2878.25
477.819	3159.25
478.595	3465.25
479.371	3808.25
480.146	4155.25
480.922	4564.25
481.698	4975.25
482.473	5475.25
483.249	5970.25
484.024	6503.25
484.8	7152.25
485.575	7770.25
486.35	8459.25
487.126	9202.25
487.901	9976.25
488.676	10847.25
489.451	11776.25
490.225	12811.25
491	13851.25
491.775	15012.25
492.55	16144.25
493.324	17406.25
494.099	18613.25
494.873	19878.25
495.647	21237.25
496.422	22573.25
497.196	23919.25
497.97	25454.25
498.744	26731.25
499.518	28096.25
500.292	29312.25
501.066	30373.25
501.839	31512.25
502.613	32475.25
503.387	33231.25
504.16	33896.25
504.934	34100.25
505.707	34342.25
506.48	34259.25
507.253	34158.25
508.027	33900.25
508.8	33407.25
509.573	32820.25
510.346	32096.25
511.118	31206.25
511.891	30355.25
512.664	29251.25
513.437	28235.25
514.209	27080.25
514.982	26158.25
515.754	25134.25
516.526	24089.25
517.298	23117.25
518.071	22130.25
518.843	21221.25
519.615	20354.25
520.387	19519.25
521.159	18824.25
521.93	18091.25
522.702	17374.25
523.474	16730.25
524.245	16049.25
525.017	15314.25
525.788	14603.25
526.56	13986.25
527.331	13374.25
528.102	12738.25
528.873	12111.25
529.644	11572.25
530.415	11067.25
531.186	10601.25
531.957	9973.25
532.728	9470.25
533.498	8953.25
534.269	8442.25
535.039	7989.25
535.81	7613.25
536.58	7165.25
537.351	6742.25
538.121	6415.25
538.891	6058.25
539.661	5730.25
540.431	5446.25
541.201	5154.25
541.971	4873.25
542.741	4620.25
543.51	4409.25
544.28	4158.25
545.05	3963.25
545.819	3801.25
546.588	3620.25
547.358	3401.25
548.127	3223.25
548.896	3065.25
549.665	2927.25
550.434	2789.25
551.203	2625.25
551.972	2487.25
552.741	2340.25
553.51	2244.25
554.278	2097.25
555.047	1979.25
555.815	1876.25
556.584	1782.25
557.352	1678.25
558.121	1572.25
558.889	1504.25
559.657	1405.25
560.425	1331.25
561.193	1260.25
561.961	1177.25
562.729	1139.25
563.496	1079.25
564.264	994.25
565.032	955.25
565.799	915.25
566.567	848.25
567.334	809.25
568.101	759.25
568.869	715.25
569.636	669.25
570.403	632.25
571.17	594.25
571.937	576.25
572.704	537.25
573.471	512.25
574.237	473.25
575.004	447.25
575.771	434.25
576.537	398.25
577.303	376.25
578.07	352.25
578.836	334.25
579.602	314.25
580.368	298.25
581.134	281.25
581.9	271.25
582.666	258.25
583.432	243.25
584.198	229.25
584.964	219.25
585.729	208.25
586.495	199.25
587.26	188.25
588.025	177.25
588.791	167.25
589.556	160.25
590.321	152.25
591.086	144.25
591.851	139.25
592.616	130.25
593.381	124.25
594.146	113.25
594.911	115.25
595.675	103.25
596.44	99.25
597.204	96.25
597.969	91.25
598.733	92.25
599.497	87.25
600.261	79.25
601.025	78.25
601.79	71.25
602.553	70.25
603.317	66.25
604.081	65.25
604.845	64.25
605.609	60.25
606.372	57.25
607.136	55.25
607.899	54.25
608.662	51.25
609.426	48.25
610.189	46.25
610.952	43.25
611.715	46.25
612.478	40.25
613.241	43.25
614.004	40.25
614.767	38.25
615.529	38.25
616.292	35.25
617.055	33.25
617.817	32.25
618.579	33.25
619.342	30.25
620.104	29.25
620.866	29.25
621.628	26.25
622.39	24.25
623.152	26.25
623.914	25.25
624.676	22.25
625.438	21.25
626.199	24.25
626.961	19.25
627.722	20.25
628.484	18.25
629.245	17.25
630.006	21.25
630.768	16.25
631.529	16.25
632.29	15.25
633.051	17.25
633.812	16.25
634.573	16.25
635.333	18.25
636.094	14.25
636.855	14.25
637.615	14.25
638.376	14.25
639.136	12.25
639.896	12.25
640.657	16.25
641.417	13.25
642.177	14.25
642.937	10.25
643.697	12.25
644.457	11.25
645.216	12.25
645.976	11.25
646.736	9.25
647.495	14.25
648.255	11.25
649.014	9.25
649.774	10.25
650.533	10.25
651.292	12.25
652.051	8.25
652.81	8.25
653.569	10.25
654.328	8.25
655.087	9.25
655.846	8.25
656.604	8.25
657.363	8.25
658.121	8.25
658.88	9.25
659.638	8.25
660.397	9.25
661.155	8.25
661.913	8.25
662.671	9.25
663.429	8.25
664.187	10.25
664.945	8.25
665.703	5.25
666.46	7.25
667.218	4.25
667.976	6.25
668.733	7.25
669.49	6.25
670.248	7.25
671.005	6.25
671.762	7.25
672.519	8.25
673.276	6.25
674.033	5.25
674.79	4.25
675.547	6.25
676.304	7.25
677.06	6.25
677.817	6.25
678.574	9.25
679.33	5.25
680.086	3.25
680.843	6.25
681.599	4.25
682.355	4.25
683.111	6.25
683.867	7.25
684.623	5.25
685.379	5.25
686.135	4.25
686.89	5.25
687.646	5.25
688.402	5.25
689.157	4.25
689.912	5.25
690.668	8.25
691.423	6.25
692.178	6.25
692.933	5.25
693.688	6.25
694.443	4.25
695.198	4.25
695.953	2.25
696.708	5.25
697.462	6.25
698.217	5.25
698.972	6.25
699.726	4.25
700.48	5.25
701.235	4.25
701.989	6.25
702.743	4.25
703.497	6.25
704.251	5.25
705.005	2.25
705.759	6.25
706.513	4.25
707.266	3.25
708.02	5.25
708.774	5.25
709.527	4.25
710.28	4.25
711.034	8.25
711.787	3.25
712.54	4.25
713.293	4.25
714.046	2.25
714.799	6.25
715.552	5.25
716.305	7.25
717.058	6.25
717.81	4.25
718.563	4.25
719.315	7.25
720.068	7.25
720.82	4.25
721.573	3.25
722.325	5.25
723.077	3.25
723.829	5.25
724.581	4.25
725.333	4.25
726.085	3.25
726.836	3.25
727.588	7.25
728.34	5.25
729.091	4.25
729.843	4.25
730.594	7.25
731.346	5.25
732.097	4.25
732.848	4.25
733.599	5.25
734.35	6.25
735.101	6.25
735.852	4.25
736.603	7.25
737.354	6.25
738.104	4.25
738.855	6.25
739.605	6.25
740.356	6.25
741.106	6.25
741.856	7.25
742.607	7.25
743.357	5.25
744.107	8.25
744.857	6.25
745.607	5.25
746.357	7.25
747.106	7.25
747.856	4.25
748.606	5.25
749.355	8.25
750.105	3.25
750.854	7.25
751.603	8.25
752.353	8.25
753.102	7.25
753.851	5.25
754.6	7.25
755.349	6.25
756.098	8.25
756.847	8.25
757.595	7.25
758.344	9.25
759.093	5.25
759.841	10.25
760.589	10.25
761.338	8.25
762.086	8.25
762.834	6.25
763.582	10.25
764.331	7.25
765.079	10.25
765.826	7.25
766.574	9.25
767.322	9.25
768.07	11.25
768.817	8.25
769.565	11.25
770.312	12.25
771.06	11.25
771.807	9.25
772.554	9.25
773.302	10.25
774.049	10.25
774.796	10.25
775.543	10.25
776.29	11.25
777.036	9.25
777.783	9.25
778.53	8.25
779.276	9.25
780.023	11.25
780.769	10.25
781.516	11.25
782.262	12.25
783.008	12.25
783.754	10.25
784.5	11.25
785.246	12.25
785.992	13.25
786.738	11.25
787.484	8.25
788.23	9.25
788.975	10.25
789.721	12.25
790.466	12.25
791.212	13.25
791.957	13.25
792.702	8.25
793.447	10.25
794.193	10.25
794.938	10.25
795.683	10.25
796.427	10.25
797.172	10.25
797.917	9.25
798.662	8.25
799.406	9.25
800.151	9.25
800.895	10.25
801.64	10.25
802.384	10.25
803.128	9.25
803.872	8.25
804.616	8.25
805.36	6.25
806.104	6.25
806.848	8.25
807.592	6.25
808.336	8.25
809.079	5.25
809.823	8.25
810.566	8.25
811.31	6.25
812.053	6.25
812.796	7.25
813.539	9.25
814.283	6.25
815.026	8.25
815.769	3.25
816.511	5.25
817.254	7.25
817.997	5.25
818.74	5.25
819.482	5.25
820.225	4.25
820.967	5.25
821.71	4.25
822.452	5.25
823.194	7.25
823.936	7.25
824.678	6.25
825.42	6.25
826.162	8.25
826.904	5.25
827.646	4.25
828.388	7.25
829.129	8.25
829.871	3.25
830.612	3.25
831.354	2.25
832.095	5.25
832.836	5.25
833.577	4.25
834.319	4.25
835.06	5.25
835.801	6.25
836.542	5.25
837.282	4.25
838.023	4.25
838.764	5.25
839.504	4.25
840.245	2.25
840.985	4.25
841.726	5.25
842.466	2.25
843.206	4.25
843.946	3.25
844.687	4.25
845.427	3.25
846.166	4.25
846.906	3.25
847.646	4.25
848.386	3.25
849.125	4.25
849.865	5.25
850.605	4.25
851.344	4.25
852.083	4.25
852.823	4.25
853.562	4.25
854.301	4.25
855.04	2.25
855.779	2.25
856.518	4.25
857.257	4.25
857.995	4.25
858.734	1.25
859.473	7.25
860.211	3.25
860.95	1.25
861.688	3.25
862.426	2.25
863.165	4.25
863.903	2.25
864.641	5.25
865.379	1.25
866.117	3.25
866.855	3.25
867.593	2.25
868.33	3.25
869.068	3.25
869.806	3.25
870.543	4.25
871.28	1.25
872.018	1.25
872.755	2.25
873.492	0.25
874.229	1.25
874.967	2.25
875.703	2.25
876.44	0.25
877.177	0.25
877.914	1.25
878.651	0.25
879.387	3.25
880.124	1.25
880.86	2.25
881.597	1.25
882.333	1.25
883.069	1.25
883.806	0.25
884.542	2.25
885.278	-0.75
886.014	6.25
886.749	1.25
887.485	0.25
888.221	0.25
888.957	2.25
889.692	2.25
890.428	0.25
891.163	0.25
891.899	1.25
892.634	-1.75
893.369	1.25
894.104	-0.75
894.839	0.25
895.574	1.25
896.309	-0.75
897.044	2.25
897.779	-0.75
898.514	1.25
899.248	1.25
899.983	1.25
900.717	-0.75
901.452	-0.75
902.186	0.25
902.92	2.25
903.654	2.25
904.389	-1.75
905.123	0.25
905.857	0.25
906.59	0.25
907.324	1.25
908.058	0.25
908.792	-0.75
909.525	0.25
910.259	2.25
910.992	2.25
911.726	-0.75
912.459	-0.75
913.192	-0.75
913.925	1.25
914.658	0.25
915.391	0.25
916.124	0.25
916.857	1.25
917.59	-1.75
918.323	1.25
919.055	-1.75
919.788	-1.75
920.521	-0.75
921.253	1.25
921.985	0.25
922.718	-0.75
923.45	2.25
924.182	2.25
924.914	1.25
925.646	1.25
926.378	-0.75
927.11	-1.75
927.841	0.25
928.573	2.25
929.305	-1.75
930.036	0.25
930.768	-1.75
931.499	0.25
932.23	1.25
932.962	0.25
933.693	0.25
934.424	2.25
935.155	1.25
935.886	0.25
936.617	0.25
937.348	1.25
938.078	-0.75
938.809	0.25
939.54	-1.75
940.27	0.25
941.001	-1.75
941.731	1.25
942.461	0.25
943.191	1.25
943.922	0.25
944.652	0.25
945.382	0.25
946.112	1.25
946.841	1.25
947.571	1.25
948.301	0.25
949.031	-0.75
949.76	-0.75
950.49	2.25
951.219	0.25
951.948	-0.75
952.678	-0.75
953.407	0.25
954.136	-0.75
954.865	1.25
955.594	0.25
956.323	-0.75
957.052	1.25
957.78	0.25
958.509	-0.75
959.238	1.25
959.966	1.25
960.695	1.25
961.423	-2.75
962.151	-0.75
962.88	0.25
963.608	-0.75
964.336	1.25
965.064	1.25
965.792	-1.75
966.52	0.25
967.247	0.25
967.975	1.25
968.703	-0.75
969.43	-0.75
970.158	0.25
970.885	0.25
971.613	-0.75
972.34	1.25
973.067	-1.75
973.794	0.25
974.521	1.25
975.248	0.25
975.975	2.25
976.702	0.25
977.429	1.25
978.156	-1.75
978.882	-0.75
979.609	0.25
980.335	0.25
981.062	0.25
981.788	-0.75
982.514	1.25
983.24	-0.75
983.967	0.25
984.693	1.25
985.419	1.25
986.144	-0.75
986.87	-0.75
987.596	0.25
988.322	1.25
989.047	-0.75
989.773	0.25
990.498	1.25
991.224	1.25
991.949	0.25
992.674	-1.75
993.399	0.25
994.124	2.25
994.849	0.25
995.574	0.25
996.299	0.25
997.024	1.25
997.749	0.25
998.473	2.25
999.198	-0.75
999.922	1.25
1000.647	0.25
1001.371	5.25
1002.095	-0.75
1002.82	-2.75
1003.544	0.25
1004.268	4.25
1004.992	2.25
1005.716	3.25
1006.439	2.25
1007.163	1.25
1007.887	2.25
1008.611	0.25
1009.334	0.25
1010.058	1.25
1010.781	0.25
1011.504	0.25
1012.228	-0.75
1012.951	-0.75
1013.674	-2.75
1014.397	1.25
1015.12	0.25
