节点500_425_QEPB04081__77__15-49-35-365.txt的数据

Date: Wed Nov 12 15:49:35 CST 2025
User: PC
Spectrometer: QEPB0408
触发模式: 0
积分时间 (秒): 1.000000E-2
Scans to average: 1
启用暗噪声校正: true
启用非线性校正: false
滑动平均宽度: 0
X轴模式: Wavelengths
Number of Pixels in Spectrum: 1044
>>>>>Begin Spectral Data<<<<<
220.843	3.62
221.644	1.62
222.444	2.62
223.244	3.62
224.045	3.62
224.845	4.62
225.645	3.62
226.445	5.62
227.245	4.62
228.045	3.62
228.845	0.62
229.645	4.62
230.444	3.62
231.244	5.62
232.043	5.62
232.843	4.62
233.642	4.62
234.442	5.62
235.241	4.62
236.04	5.62
236.839	5.62
237.638	4.62
238.437	7.62
239.236	4.62
240.035	7.62
240.833	7.62
241.632	4.62
242.43	8.62
243.229	7.62
244.027	7.62
244.826	6.62
245.624	8.62
246.422	9.62
247.22	8.62
248.018	7.62
248.816	8.62
249.614	9.62
250.412	7.62
251.21	8.62
252.007	9.62
252.805	11.62
253.602	9.62
254.4	11.62
255.197	11.62
255.994	12.62
256.791	13.62
257.589	16.62
258.386	13.62
259.183	13.62
259.979	11.62
260.776	14.62
261.573	15.62
262.37	15.62
263.166	17.62
263.963	16.62
264.759	16.62
265.556	16.62
266.352	21.62
267.148	19.62
267.944	20.62
268.74	21.62
269.536	18.62
270.332	24.62
271.128	22.62
271.924	25.62
272.719	24.62
273.515	21.62
274.311	24.62
275.106	22.62
275.901	24.62
276.697	21.62
277.492	22.62
278.287	27.62
279.082	23.62
279.877	23.62
280.672	26.62
281.467	24.62
282.262	26.62
283.056	26.62
283.851	25.62
284.646	24.62
285.44	23.62
286.234	27.62
287.029	25.62
287.823	25.62
288.617	25.62
289.411	24.62
290.205	24.62
290.999	24.62
291.793	27.62
292.587	24.62
293.381	23.62
294.174	18.62
294.968	22.62
295.761	21.62
296.555	16.62
297.348	21.62
298.141	18.62
298.935	23.62
299.728	21.62
300.521	17.62
301.314	18.62
302.107	15.62
302.899	13.62
303.692	16.62
304.485	14.62
305.277	16.62
306.07	15.62
306.862	15.62
307.655	14.62
308.447	14.62
309.239	16.62
310.031	12.62
310.823	14.62
311.615	10.62
312.407	13.62
313.199	11.62
313.991	11.62
314.783	11.62
315.574	10.62
316.366	11.62
317.157	10.62
317.949	12.62
318.74	9.62
319.531	10.62
320.322	11.62
321.113	7.62
321.904	8.62
322.695	8.62
323.486	10.62
324.277	8.62
325.068	10.62
325.858	9.62
326.649	7.62
327.439	9.62
328.23	7.62
329.02	8.62
329.81	9.62
330.6	6.62
331.391	8.62
332.181	7.62
332.971	8.62
333.76	7.62
334.55	8.62
335.34	6.62
336.13	8.62
336.919	8.62
337.709	7.62
338.498	5.62
339.287	5.62
340.077	5.62
340.866	6.62
341.655	7.62
342.444	8.62
343.233	7.62
344.022	7.62
344.811	6.62
345.6	7.62
346.388	6.62
347.177	9.62
347.965	4.62
348.754	8.62
349.542	5.62
350.33	6.62
351.119	9.62
351.907	4.62
352.695	4.62
353.483	5.62
354.271	6.62
355.059	6.62
355.846	7.62
356.634	6.62
357.422	8.62
358.209	8.62
358.997	5.62
359.784	8.62
360.571	6.62
361.359	7.62
362.146	7.62
362.933	6.62
363.72	6.62
364.507	6.62
365.294	3.62
366.081	7.62
366.867	8.62
367.654	7.62
368.44	6.62
369.227	6.62
370.013	5.62
370.8	7.62
371.586	7.62
372.372	4.62
373.158	6.62
373.944	6.62
374.73	5.62
375.516	7.62
376.302	8.62
377.088	6.62
377.873	5.62
378.659	7.62
379.445	6.62
380.23	5.62
381.015	3.62
381.801	10.62
382.586	9.62
383.371	5.62
384.156	6.62
384.941	5.62
385.726	6.62
386.511	7.62
387.296	6.62
388.08	6.62
388.865	4.62
389.649	8.62
390.434	4.62
391.218	6.62
392.003	5.62
392.787	7.62
393.571	8.62
394.355	8.62
395.139	7.62
395.923	9.62
396.707	6.62
397.491	7.62
398.274	6.62
399.058	8.62
399.842	8.62
400.625	10.62
401.408	8.62
402.192	10.62
402.975	11.62
403.758	7.62
404.541	9.62
405.324	9.62
406.107	9.62
406.89	10.62
407.673	9.62
408.456	8.62
409.238	11.62
410.021	11.62
410.803	11.62
411.586	11.62
412.368	13.62
413.151	11.62
413.933	11.62
414.715	9.62
415.497	11.62
416.279	12.62
417.061	10.62
417.843	13.62
418.624	13.62
419.406	13.62
420.188	13.62
420.969	13.62
421.751	14.62
422.532	13.62
423.313	16.62
424.095	18.62
424.876	16.62
425.657	19.62
426.438	14.62
427.219	16.62
428	16.62
428.78	16.62
429.561	17.62
430.342	18.62
431.122	20.62
431.903	17.62
432.683	20.62
433.464	22.62
434.244	23.62
435.024	22.62
435.804	23.62
436.584	25.62
437.364	28.62
438.144	25.62
438.924	30.62
439.704	31.62
440.483	30.62
441.263	35.62
442.042	37.62
442.822	37.62
443.601	41.62
444.38	46.62
445.16	50.62
445.939	51.62
446.718	51.62
447.497	59.62
448.276	62.62
449.054	67.62
449.833	78.62
450.612	80.62
451.391	89.62
452.169	97.62
452.948	106.62
453.726	115.62
454.504	126.62
455.282	141.62
456.061	157.62
456.839	173.62
457.617	188.62
458.395	214.62
459.172	243.62
459.95	264.62
460.728	292.62
461.506	334.62
462.283	366.62
463.061	416.62
463.838	468.62
464.615	526.62
465.393	589.62
466.17	651.62
466.947	725.62
467.724	828.62
468.501	920.62
469.278	1014.62
470.055	1127.62
470.831	1240.62
471.608	1398.62
472.385	1554.62
473.161	1729.62
473.938	1933.62
474.714	2128.62
475.49	2363.62
476.266	2614.62
477.043	2896.62
477.819	3198.62
478.595	3569.62
479.371	3913.62
480.146	4311.62
480.922	4737.62
481.698	5240.62
482.473	5784.62
483.249	6369.62
484.024	6983.62
484.8	7726.62
485.575	8450.62
486.35	9208.62
487.126	10179.62
487.901	11135.62
488.676	12129.62
489.451	13268.62
490.225	14399.62
491	15771.62
491.775	17071.62
492.55	18487.62
493.324	19996.62
494.099	21402.62
494.873	22852.62
495.647	24417.62
496.422	25933.62
497.196	27507.62
497.97	29126.62
498.744	30654.62
499.518	32068.62
500.292	33384.62
501.066	34437.62
501.839	35385.62
502.613	36285.62
503.387	36811.62
504.16	37167.62
504.934	37330.62
505.707	37207.62
506.48	36861.62
507.253	36288.62
508.027	35710.62
508.8	34914.62
509.573	33968.62
510.346	32978.62
511.118	31800.62
511.891	30625.62
512.664	29449.62
513.437	28209.62
514.209	26989.62
514.982	25877.62
515.754	24781.62
516.526	23651.62
517.298	22679.62
518.071	21651.62
518.843	20817.62
519.615	19917.62
520.387	19079.62
521.159	18384.62
521.93	17760.62
522.702	16979.62
523.474	16332.62
524.245	15714.62
525.017	14906.62
525.788	14211.62
526.56	13528.62
527.331	12941.62
528.102	12312.62
528.873	11687.62
529.644	11083.62
530.415	10548.62
531.186	10050.62
531.957	9488.62
532.728	8960.62
533.498	8426.62
534.269	7963.62
535.039	7559.62
535.81	7142.62
536.58	6707.62
537.351	6332.62
538.121	5957.62
538.891	5668.62
539.661	5365.62
540.431	5080.62
541.201	4817.62
541.971	4545.62
542.741	4335.62
543.51	4124.62
544.28	3905.62
545.05	3719.62
545.819	3551.62
546.588	3360.62
547.358	3184.62
548.127	3023.62
548.896	2868.62
549.665	2709.62
550.434	2586.62
551.203	2436.62
551.972	2306.62
552.741	2182.62
553.51	2060.62
554.278	1948.62
555.047	1828.62
555.815	1732.62
556.584	1614.62
557.352	1539.62
558.121	1433.62
558.889	1369.62
559.657	1296.62
560.425	1228.62
561.193	1152.62
561.961	1085.62
562.729	1045.62
563.496	984.62
564.264	915.62
565.032	875.62
565.799	829.62
566.567	776.62
567.334	736.62
568.101	699.62
568.869	654.62
569.636	613.62
570.403	577.62
571.17	557.62
571.937	513.62
572.704	496.62
573.471	465.62
574.237	440.62
575.004	406.62
575.771	391.62
576.537	361.62
577.303	338.62
578.07	324.62
578.836	306.62
579.602	282.62
580.368	270.62
581.134	257.62
581.9	245.62
582.666	231.62
583.432	224.62
584.198	208.62
584.964	196.62
585.729	192.62
586.495	172.62
587.26	173.62
588.025	160.62
588.791	150.62
589.556	144.62
590.321	139.62
591.086	127.62
591.851	126.62
592.616	115.62
593.381	111.62
594.146	108.62
594.911	98.62
595.675	98.62
596.44	93.62
597.204	84.62
597.969	83.62
598.733	76.62
599.497	79.62
600.261	71.62
601.025	66.62
601.79	65.62
602.553	63.62
603.317	57.62
604.081	58.62
604.845	55.62
605.609	53.62
606.372	52.62
607.136	51.62
607.899	46.62
608.662	48.62
609.426	45.62
610.189	43.62
610.952	39.62
611.715	39.62
612.478	37.62
613.241	39.62
614.004	33.62
614.767	32.62
615.529	36.62
616.292	31.62
617.055	30.62
617.817	27.62
618.579	26.62
619.342	31.62
620.104	26.62
620.866	26.62
621.628	25.62
622.39	22.62
623.152	22.62
623.914	23.62
624.676	23.62
625.438	21.62
626.199	17.62
626.961	19.62
627.722	17.62
628.484	20.62
629.245	18.62
630.006	17.62
630.768	17.62
631.529	15.62
632.29	16.62
633.051	13.62
633.812	16.62
634.573	16.62
635.333	14.62
636.094	13.62
636.855	14.62
637.615	11.62
638.376	12.62
639.136	13.62
639.896	12.62
640.657	11.62
641.417	14.62
642.177	12.62
642.937	10.62
643.697	12.62
644.457	12.62
645.216	10.62
645.976	10.62
646.736	13.62
647.495	6.62
648.255	10.62
649.014	9.62
649.774	8.62
650.533	10.62
651.292	7.62
652.051	7.62
652.81	9.62
653.569	11.62
654.328	9.62
655.087	7.62
655.846	8.62
656.604	10.62
657.363	8.62
658.121	7.62
658.88	6.62
659.638	5.62
660.397	6.62
661.155	7.62
661.913	7.62
662.671	4.62
663.429	6.62
664.187	3.62
664.945	5.62
665.703	5.62
666.46	5.62
667.218	8.62
667.976	3.62
668.733	3.62
669.49	5.62
670.248	5.62
671.005	5.62
671.762	6.62
672.519	5.62
673.276	4.62
674.033	4.62
674.79	2.62
675.547	6.62
676.304	6.62
677.06	1.62
677.817	5.62
678.574	4.62
679.33	6.62
680.086	4.62
680.843	5.62
681.599	4.62
682.355	5.62
683.111	6.62
683.867	6.62
684.623	6.62
685.379	5.62
686.135	6.62
686.89	4.62
687.646	2.62
688.402	4.62
689.157	6.62
689.912	6.62
690.668	6.62
691.423	2.62
692.178	3.62
692.933	6.62
693.688	4.62
694.443	4.62
695.198	3.62
695.953	5.62
696.708	2.62
697.462	4.62
698.217	3.62
698.972	3.62
699.726	1.62
700.48	2.62
701.235	4.62
701.989	4.62
702.743	3.62
703.497	2.62
704.251	2.62
705.005	3.62
705.759	4.62
706.513	4.62
707.266	5.62
708.02	6.62
708.774	4.62
709.527	2.62
710.28	4.62
711.034	1.62
711.787	5.62
712.54	3.62
713.293	3.62
714.046	4.62
714.799	2.62
715.552	4.62
716.305	5.62
717.058	4.62
717.81	3.62
718.563	1.62
719.315	2.62
720.068	4.62
720.82	5.62
721.573	4.62
722.325	4.62
723.077	4.62
723.829	3.62
724.581	4.62
725.333	2.62
726.085	5.62
726.836	4.62
727.588	4.62
728.34	3.62
729.091	4.62
729.843	4.62
730.594	5.62
731.346	5.62
732.097	5.62
732.848	2.62
733.599	5.62
734.35	4.62
735.101	7.62
735.852	3.62
736.603	5.62
737.354	4.62
738.104	6.62
738.855	5.62
739.605	4.62
740.356	6.62
741.106	6.62
741.856	3.62
742.607	6.62
743.357	6.62
744.107	5.62
744.857	6.62
745.607	4.62
746.357	6.62
747.106	6.62
747.856	8.62
748.606	6.62
749.355	4.62
750.105	6.62
750.854	4.62
751.603	9.62
752.353	6.62
753.102	8.62
753.851	6.62
754.6	7.62
755.349	6.62
756.098	9.62
756.847	7.62
757.595	6.62
758.344	6.62
759.093	7.62
759.841	6.62
760.589	8.62
761.338	8.62
762.086	9.62
762.834	8.62
763.582	9.62
764.331	10.62
765.079	8.62
765.826	9.62
766.574	10.62
767.322	9.62
768.07	9.62
768.817	12.62
769.565	8.62
770.312	8.62
771.06	10.62
771.807	9.62
772.554	10.62
773.302	14.62
774.049	10.62
774.796	9.62
775.543	10.62
776.29	12.62
777.036	10.62
777.783	10.62
778.53	11.62
779.276	10.62
780.023	12.62
780.769	11.62
781.516	10.62
782.262	11.62
783.008	10.62
783.754	10.62
784.5	9.62
785.246	12.62
785.992	11.62
786.738	12.62
787.484	11.62
788.23	10.62
788.975	12.62
789.721	9.62
790.466	8.62
791.212	12.62
791.957	10.62
792.702	11.62
793.447	9.62
794.193	12.62
794.938	12.62
795.683	9.62
796.427	9.62
797.172	10.62
797.917	8.62
798.662	7.62
799.406	8.62
800.151	7.62
800.895	10.62
801.64	8.62
802.384	8.62
803.128	7.62
803.872	6.62
804.616	6.62
805.36	7.62
806.104	7.62
806.848	9.62
807.592	7.62
808.336	10.62
809.079	9.62
809.823	6.62
810.566	6.62
811.31	4.62
812.053	5.62
812.796	6.62
813.539	6.62
814.283	7.62
815.026	5.62
815.769	9.62
816.511	4.62
817.254	4.62
817.997	7.62
818.74	6.62
819.482	5.62
820.225	4.62
820.967	5.62
821.71	4.62
822.452	5.62
823.194	5.62
823.936	3.62
824.678	7.62
825.42	1.62
826.162	2.62
826.904	0.62
827.646	5.62
828.388	1.62
829.129	4.62
829.871	4.62
830.612	4.62
831.354	4.62
832.095	3.62
832.836	2.62
833.577	4.62
834.319	4.62
835.06	3.62
835.801	3.62
836.542	3.62
837.282	2.62
838.023	1.62
838.764	2.62
839.504	4.62
840.245	2.62
840.985	3.62
841.726	3.62
842.466	3.62
843.206	3.62
843.946	3.62
844.687	1.62
845.427	3.62
846.166	1.62
846.906	0.62
847.646	3.62
848.386	3.62
849.125	6.62
849.865	2.62
850.605	1.62
851.344	2.62
852.083	2.62
852.823	3.62
853.562	0.62
854.301	1.62
855.04	2.62
855.779	3.62
856.518	3.62
857.257	2.62
857.995	1.62
858.734	1.62
859.473	3.62
860.211	2.62
860.95	1.62
861.688	0.62
862.426	2.62
863.165	2.62
863.903	1.62
864.641	3.62
865.379	2.62
866.117	1.62
866.855	1.62
867.593	-0.38
868.33	0.62
869.068	0.62
869.806	-0.38
870.543	1.62
871.28	0.62
872.018	0.62
872.755	-0.38
873.492	1.62
874.229	1.62
874.967	0.62
875.703	2.62
876.44	0.62
877.177	0.62
877.914	0.62
878.651	0.62
879.387	2.62
880.124	-1.38
880.86	2.62
881.597	1.62
882.333	0.62
883.069	1.62
883.806	2.62
884.542	3.62
885.278	0.62
886.014	1.62
886.749	-2.38
887.485	2.62
888.221	1.62
888.957	-0.38
889.692	1.62
890.428	0.62
891.163	0.62
891.899	-0.38
892.634	-0.38
893.369	0.62
894.104	0.62
894.839	0.62
895.574	0.62
896.309	0.62
897.044	1.62
897.779	-0.38
898.514	-1.38
899.248	-1.38
899.983	-1.38
900.717	0.62
901.452	-1.38
902.186	-0.38
902.92	-1.38
903.654	-0.38
904.389	-1.38
905.123	-2.38
905.857	-1.38
906.59	-1.38
907.324	0.62
908.058	-0.38
908.792	-0.38
909.525	-2.38
910.259	-0.38
910.992	-0.38
911.726	-0.38
912.459	0.62
913.192	-1.38
913.925	0.62
914.658	0.62
915.391	0.62
916.124	1.62
916.857	-4.38
917.59	0.62
918.323	0.62
919.055	-0.38
919.788	-0.38
920.521	-0.38
921.253	-0.38
921.985	0.62
922.718	0.62
923.45	-1.38
924.182	-2.38
924.914	0.62
925.646	-1.38
926.378	-1.38
927.11	-0.38
927.841	1.62
928.573	-1.38
929.305	1.62
930.036	-0.38
930.768	-1.38
931.499	-0.38
932.23	-0.38
932.962	-0.38
933.693	0.62
934.424	-1.38
935.155	0.62
935.886	-0.38
936.617	-0.38
937.348	0.62
938.078	-0.38
938.809	0.62
939.54	-2.38
940.27	0.62
941.001	-0.38
941.731	0.62
942.461	-0.38
943.191	-2.38
943.922	-0.38
944.652	0.62
945.382	-2.38
946.112	-0.38
946.841	1.62
947.571	-1.38
948.301	0.62
949.031	1.62
949.76	0.62
950.49	-2.38
951.219	-1.38
951.948	-2.38
952.678	1.62
953.407	-1.38
954.136	0.62
954.865	-2.38
955.594	1.62
956.323	0.62
957.052	1.62
957.78	0.62
958.509	-1.38
959.238	0.62
959.966	1.62
960.695	-0.38
961.423	-2.38
962.151	1.62
962.88	-0.38
963.608	-0.38
964.336	-0.38
965.064	0.62
965.792	-0.38
966.52	-2.38
967.247	0.62
967.975	-1.38
968.703	-1.38
969.43	-0.38
970.158	0.62
970.885	0.62
971.613	0.62
972.34	-1.38
973.067	-1.38
973.794	-1.38
974.521	-1.38
975.248	-0.38
975.975	-1.38
976.702	0.62
977.429	0.62
978.156	-1.38
978.882	-0.38
979.609	-2.38
980.335	0.62
981.062	0.62
981.788	-1.38
982.514	-0.38
983.24	-1.38
983.967	-1.38
984.693	-1.38
985.419	-2.38
986.144	1.62
986.87	-2.38
987.596	0.62
988.322	-3.38
989.047	0.62
989.773	0.62
990.498	1.62
991.224	-1.38
991.949	1.62
992.674	-0.38
993.399	-1.38
994.124	-1.38
994.849	0.62
995.574	-1.38
996.299	-0.38
997.024	0.62
997.749	1.62
998.473	-2.38
999.198	-0.38
999.922	-1.38
1000.647	-0.38
1001.371	4.62
1002.095	-0.38
1002.82	-1.38
1003.544	-1.38
1004.268	-0.38
1004.992	-0.38
1005.716	1.62
1006.439	0.62
1007.163	2.62
1007.887	2.62
1008.611	1.62
1009.334	-0.38
1010.058	2.62
1010.781	0.62
1011.504	-2.38
1012.228	-1.38
1012.951	-1.38
1013.674	0.62
1014.397	-1.38
1015.12	0.62
