节点500_425_QEPB04081__324__15-53-41-826.txt的数据

Date: Wed Nov 12 15:53:41 CST 2025
User: PC
Spectrometer: QEPB0408
触发模式: 0
积分时间 (秒): 1.000000E-2
Scans to average: 1
启用暗噪声校正: true
启用非线性校正: false
滑动平均宽度: 0
X轴模式: Wavelengths
Number of Pixels in Spectrum: 1044
>>>>>Begin Spectral Data<<<<<
220.843	4.12
221.644	3.12
222.444	1.12
223.244	4.12
224.045	3.12
224.845	3.12
225.645	2.12
226.445	3.12
227.245	5.12
228.045	3.12
228.845	4.12
229.645	6.12
230.444	4.12
231.244	5.12
232.043	6.12
232.843	6.12
233.642	6.12
234.442	9.12
235.241	6.12
236.04	6.12
236.839	5.12
237.638	7.12
238.437	7.12
239.236	7.12
240.035	10.12
240.833	11.12
241.632	8.12
242.43	7.12
243.229	6.12
244.027	10.12
244.826	9.12
245.624	10.12
246.422	9.12
247.22	7.12
248.018	11.12
248.816	10.12
249.614	11.12
250.412	10.12
251.21	10.12
252.007	10.12
252.805	9.12
253.602	13.12
254.4	12.12
255.197	13.12
255.994	13.12
256.791	10.12
257.589	15.12
258.386	12.12
259.183	15.12
259.979	14.12
260.776	14.12
261.573	13.12
262.37	15.12
263.166	14.12
263.963	16.12
264.759	18.12
265.556	15.12
266.352	17.12
267.148	18.12
267.944	18.12
268.74	19.12
269.536	19.12
270.332	21.12
271.128	19.12
271.924	22.12
272.719	24.12
273.515	23.12
274.311	24.12
275.106	21.12
275.901	23.12
276.697	24.12
277.492	23.12
278.287	25.12
279.082	25.12
279.877	25.12
280.672	28.12
281.467	22.12
282.262	26.12
283.056	28.12
283.851	25.12
284.646	27.12
285.44	25.12
286.234	24.12
287.029	23.12
287.823	25.12
288.617	25.12
289.411	25.12
290.205	23.12
290.999	23.12
291.793	25.12
292.587	24.12
293.381	25.12
294.174	23.12
294.968	21.12
295.761	21.12
296.555	20.12
297.348	21.12
298.141	21.12
298.935	23.12
299.728	20.12
300.521	21.12
301.314	19.12
302.107	18.12
302.899	20.12
303.692	18.12
304.485	17.12
305.277	14.12
306.07	15.12
306.862	14.12
307.655	17.12
308.447	18.12
309.239	16.12
310.031	15.12
310.823	13.12
311.615	14.12
312.407	16.12
313.199	11.12
313.991	15.12
314.783	13.12
315.574	14.12
316.366	14.12
317.157	11.12
317.949	12.12
318.74	12.12
319.531	11.12
320.322	12.12
321.113	8.12
321.904	11.12
322.695	8.12
323.486	12.12
324.277	9.12
325.068	11.12
325.858	9.12
326.649	9.12
327.439	10.12
328.23	9.12
329.02	8.12
329.81	6.12
330.6	6.12
331.391	9.12
332.181	8.12
332.971	10.12
333.76	12.12
334.55	11.12
335.34	10.12
336.13	9.12
336.919	8.12
337.709	7.12
338.498	10.12
339.287	9.12
340.077	9.12
340.866	10.12
341.655	8.12
342.444	7.12
343.233	10.12
344.022	10.12
344.811	10.12
345.6	10.12
346.388	8.12
347.177	8.12
347.965	10.12
348.754	10.12
349.542	9.12
350.33	7.12
351.119	7.12
351.907	8.12
352.695	8.12
353.483	6.12
354.271	6.12
355.059	6.12
355.846	9.12
356.634	10.12
357.422	9.12
358.209	8.12
358.997	5.12
359.784	6.12
360.571	6.12
361.359	9.12
362.146	8.12
362.933	8.12
363.72	7.12
364.507	4.12
365.294	4.12
366.081	8.12
366.867	8.12
367.654	8.12
368.44	8.12
369.227	8.12
370.013	6.12
370.8	7.12
371.586	7.12
372.372	6.12
373.158	8.12
373.944	8.12
374.73	7.12
375.516	8.12
376.302	6.12
377.088	8.12
377.873	7.12
378.659	7.12
379.445	6.12
380.23	7.12
381.015	6.12
381.801	6.12
382.586	6.12
383.371	9.12
384.156	9.12
384.941	8.12
385.726	10.12
386.511	7.12
387.296	8.12
388.08	11.12
388.865	8.12
389.649	9.12
390.434	10.12
391.218	6.12
392.003	8.12
392.787	9.12
393.571	9.12
394.355	11.12
395.139	8.12
395.923	10.12
396.707	9.12
397.491	11.12
398.274	8.12
399.058	10.12
399.842	9.12
400.625	11.12
401.408	10.12
402.192	11.12
402.975	13.12
403.758	10.12
404.541	10.12
405.324	14.12
406.107	12.12
406.89	10.12
407.673	10.12
408.456	12.12
409.238	11.12
410.021	11.12
410.803	12.12
411.586	12.12
412.368	14.12
413.151	12.12
413.933	12.12
414.715	13.12
415.497	14.12
416.279	13.12
417.061	13.12
417.843	15.12
418.624	15.12
419.406	14.12
420.188	15.12
420.969	15.12
421.751	15.12
422.532	15.12
423.313	15.12
424.095	15.12
424.876	17.12
425.657	18.12
426.438	17.12
427.219	17.12
428	17.12
428.78	19.12
429.561	18.12
430.342	19.12
431.122	22.12
431.903	22.12
432.683	21.12
433.464	25.12
434.244	25.12
435.024	25.12
435.804	23.12
436.584	28.12
437.364	28.12
438.144	30.12
438.924	29.12
439.704	33.12
440.483	37.12
441.263	37.12
442.042	40.12
442.822	39.12
443.601	42.12
444.38	43.12
445.16	48.12
445.939	54.12
446.718	57.12
447.497	64.12
448.276	73.12
449.054	74.12
449.833	81.12
450.612	85.12
451.391	95.12
452.169	105.12
452.948	113.12
453.726	127.12
454.504	137.12
455.282	152.12
456.061	168.12
456.839	188.12
457.617	206.12
458.395	234.12
459.172	260.12
459.95	292.12
460.728	319.12
461.506	368.12
462.283	399.12
463.061	448.12
463.838	500.12
464.615	563.12
465.393	618.12
466.17	696.12
466.947	779.12
467.724	860.12
468.501	953.12
469.278	1066.12
470.055	1177.12
470.831	1292.12
471.608	1431.12
472.385	1589.12
473.161	1758.12
473.938	1967.12
474.714	2149.12
475.49	2393.12
476.266	2618.12
477.043	2883.12
477.819	3153.12
478.595	3465.12
479.371	3834.12
480.146	4185.12
480.922	4594.12
481.698	5045.12
482.473	5506.12
483.249	6059.12
484.024	6625.12
484.8	7301.12
485.575	7938.12
486.35	8646.12
487.126	9401.12
487.901	10267.12
488.676	11135.12
489.451	12127.12
490.225	13175.12
491	14301.12
491.775	15494.12
492.55	16701.12
493.324	17926.12
494.099	19198.12
494.873	20585.12
495.647	21924.12
496.422	23311.12
497.196	24751.12
497.97	26235.12
498.744	27539.12
499.518	29025.12
500.292	30151.12
501.066	31274.12
501.839	32370.12
502.613	33307.12
503.387	34024.12
504.16	34629.12
504.934	34954.12
505.707	35004.12
506.48	34882.12
507.253	34674.12
508.027	34287.12
508.8	33818.12
509.573	33162.12
510.346	32432.12
511.118	31422.12
511.891	30453.12
512.664	29345.12
513.437	28178.12
514.209	27084.12
514.982	26136.12
515.754	25053.12
516.526	24046.12
517.298	22992.12
518.071	22054.12
518.843	21086.12
519.615	20255.12
520.387	19457.12
521.159	18752.12
521.93	17972.12
522.702	17263.12
523.474	16578.12
524.245	15988.12
525.017	15220.12
525.788	14531.12
526.56	13880.12
527.331	13262.12
528.102	12612.12
528.873	12030.12
529.644	11478.12
530.415	10952.12
531.186	10412.12
531.957	9851.12
532.728	9322.12
533.498	8822.12
534.269	8317.12
535.039	7894.12
535.81	7439.12
536.58	7054.12
537.351	6685.12
538.121	6283.12
538.891	5965.12
539.661	5637.12
540.431	5369.12
541.201	5080.12
541.971	4804.12
542.741	4549.12
543.51	4344.12
544.28	4119.12
545.05	3911.12
545.819	3762.12
546.588	3543.12
547.358	3345.12
548.127	3168.12
548.896	3017.12
549.665	2861.12
550.434	2723.12
551.203	2569.12
551.972	2445.12
552.741	2311.12
553.51	2194.12
554.278	2051.12
555.047	1940.12
555.815	1837.12
556.584	1741.12
557.352	1641.12
558.121	1556.12
558.889	1474.12
559.657	1391.12
560.425	1302.12
561.193	1223.12
561.961	1157.12
562.729	1100.12
563.496	1051.12
564.264	976.12
565.032	928.12
565.799	886.12
566.567	844.12
567.334	785.12
568.101	742.12
568.869	714.12
569.636	661.12
570.403	619.12
571.17	588.12
571.937	554.12
572.704	529.12
573.471	495.12
574.237	472.12
575.004	440.12
575.771	415.12
576.537	387.12
577.303	369.12
578.07	350.12
578.836	325.12
579.602	305.12
580.368	293.12
581.134	273.12
581.9	259.12
582.666	252.12
583.432	244.12
584.198	227.12
584.964	211.12
585.729	205.12
586.495	195.12
587.26	190.12
588.025	179.12
588.791	159.12
589.556	156.12
590.321	147.12
591.086	142.12
591.851	134.12
592.616	129.12
593.381	120.12
594.146	115.12
594.911	114.12
595.675	107.12
596.44	100.12
597.204	99.12
597.969	92.12
598.733	89.12
599.497	82.12
600.261	79.12
601.025	75.12
601.79	70.12
602.553	66.12
603.317	68.12
604.081	64.12
604.845	59.12
605.609	59.12
606.372	57.12
607.136	53.12
607.899	54.12
608.662	47.12
609.426	51.12
610.189	46.12
610.952	47.12
611.715	45.12
612.478	40.12
613.241	39.12
614.004	40.12
614.767	37.12
615.529	38.12
616.292	38.12
617.055	32.12
617.817	31.12
618.579	29.12
619.342	29.12
620.104	33.12
620.866	30.12
621.628	26.12
622.39	25.12
623.152	26.12
623.914	26.12
624.676	26.12
625.438	25.12
626.199	26.12
626.961	22.12
627.722	21.12
628.484	21.12
629.245	22.12
630.006	22.12
630.768	19.12
631.529	20.12
632.29	17.12
633.051	19.12
633.812	17.12
634.573	16.12
635.333	16.12
636.094	13.12
636.855	16.12
637.615	16.12
638.376	15.12
639.136	17.12
639.896	14.12
640.657	14.12
641.417	11.12
642.177	13.12
642.937	12.12
643.697	13.12
644.457	12.12
645.216	11.12
645.976	12.12
646.736	9.12
647.495	10.12
648.255	13.12
649.014	11.12
649.774	10.12
650.533	9.12
651.292	11.12
652.051	10.12
652.81	10.12
653.569	8.12
654.328	10.12
655.087	10.12
655.846	8.12
656.604	9.12
657.363	10.12
658.121	9.12
658.88	9.12
659.638	8.12
660.397	8.12
661.155	7.12
661.913	6.12
662.671	10.12
663.429	8.12
664.187	6.12
664.945	7.12
665.703	6.12
666.46	8.12
667.218	7.12
667.976	7.12
668.733	6.12
669.49	8.12
670.248	5.12
671.005	7.12
671.762	7.12
672.519	4.12
673.276	7.12
674.033	6.12
674.79	7.12
675.547	7.12
676.304	8.12
677.06	5.12
677.817	5.12
678.574	6.12
679.33	3.12
680.086	7.12
680.843	7.12
681.599	6.12
682.355	6.12
683.111	5.12
683.867	8.12
684.623	5.12
685.379	7.12
686.135	10.12
686.89	6.12
687.646	6.12
688.402	6.12
689.157	6.12
689.912	7.12
690.668	5.12
691.423	6.12
692.178	6.12
692.933	7.12
693.688	5.12
694.443	7.12
695.198	6.12
695.953	3.12
696.708	6.12
697.462	6.12
698.217	5.12
698.972	4.12
699.726	5.12
700.48	6.12
701.235	7.12
701.989	8.12
702.743	4.12
703.497	6.12
704.251	5.12
705.005	5.12
705.759	5.12
706.513	5.12
707.266	8.12
708.02	6.12
708.774	4.12
709.527	6.12
710.28	7.12
711.034	5.12
711.787	5.12
712.54	4.12
713.293	4.12
714.046	3.12
714.799	5.12
715.552	6.12
716.305	4.12
717.058	4.12
717.81	7.12
718.563	7.12
719.315	4.12
720.068	6.12
720.82	4.12
721.573	4.12
722.325	7.12
723.077	7.12
723.829	5.12
724.581	5.12
725.333	7.12
726.085	4.12
726.836	5.12
727.588	4.12
728.34	6.12
729.091	4.12
729.843	5.12
730.594	6.12
731.346	3.12
732.097	6.12
732.848	4.12
733.599	5.12
734.35	9.12
735.101	4.12
735.852	5.12
736.603	8.12
737.354	6.12
738.104	7.12
738.855	7.12
739.605	8.12
740.356	9.12
741.106	7.12
741.856	6.12
742.607	7.12
743.357	10.12
744.107	6.12
744.857	7.12
745.607	9.12
746.357	5.12
747.106	5.12
747.856	8.12
748.606	7.12
749.355	7.12
750.105	8.12
750.854	7.12
751.603	8.12
752.353	9.12
753.102	8.12
753.851	6.12
754.6	9.12
755.349	7.12
756.098	9.12
756.847	5.12
757.595	8.12
758.344	10.12
759.093	10.12
759.841	9.12
760.589	10.12
761.338	9.12
762.086	9.12
762.834	8.12
763.582	10.12
764.331	11.12
765.079	11.12
765.826	10.12
766.574	10.12
767.322	10.12
768.07	10.12
768.817	10.12
769.565	12.12
770.312	11.12
771.06	10.12
771.807	9.12
772.554	10.12
773.302	10.12
774.049	11.12
774.796	11.12
775.543	14.12
776.29	11.12
777.036	10.12
777.783	12.12
778.53	11.12
779.276	13.12
780.023	11.12
780.769	13.12
781.516	14.12
782.262	11.12
783.008	11.12
783.754	12.12
784.5	11.12
785.246	11.12
785.992	14.12
786.738	12.12
787.484	11.12
788.23	13.12
788.975	10.12
789.721	12.12
790.466	13.12
791.212	12.12
791.957	10.12
792.702	10.12
793.447	14.12
794.193	11.12
794.938	10.12
795.683	11.12
796.427	8.12
797.172	12.12
797.917	12.12
798.662	11.12
799.406	10.12
800.151	9.12
800.895	10.12
801.64	9.12
802.384	11.12
803.128	8.12
803.872	8.12
804.616	9.12
805.36	11.12
806.104	10.12
806.848	5.12
807.592	10.12
808.336	8.12
809.079	5.12
809.823	9.12
810.566	8.12
811.31	8.12
812.053	6.12
812.796	8.12
813.539	6.12
814.283	5.12
815.026	8.12
815.769	7.12
816.511	5.12
817.254	7.12
817.997	7.12
818.74	7.12
819.482	6.12
820.225	5.12
820.967	6.12
821.71	8.12
822.452	5.12
823.194	7.12
823.936	7.12
824.678	5.12
825.42	7.12
826.162	3.12
826.904	6.12
827.646	5.12
828.388	6.12
829.129	6.12
829.871	4.12
830.612	5.12
831.354	4.12
832.095	5.12
832.836	8.12
833.577	6.12
834.319	5.12
835.06	4.12
835.801	4.12
836.542	5.12
837.282	4.12
838.023	5.12
838.764	4.12
839.504	4.12
840.245	4.12
840.985	5.12
841.726	5.12
842.466	5.12
843.206	5.12
843.946	4.12
844.687	4.12
845.427	5.12
846.166	4.12
846.906	4.12
847.646	4.12
848.386	5.12
849.125	3.12
849.865	4.12
850.605	4.12
851.344	3.12
852.083	6.12
852.823	4.12
853.562	2.12
854.301	5.12
855.04	3.12
855.779	7.12
856.518	3.12
857.257	4.12
857.995	1.12
858.734	5.12
859.473	3.12
860.211	2.12
860.95	5.12
861.688	4.12
862.426	5.12
863.165	3.12
863.903	3.12
864.641	2.12
865.379	2.12
866.117	4.12
866.855	2.12
867.593	5.12
868.33	3.12
869.068	2.12
869.806	3.12
870.543	3.12
871.28	0.12
872.018	1.12
872.755	1.12
873.492	3.12
874.229	2.12
874.967	2.12
875.703	3.12
876.44	3.12
877.177	0.12
877.914	2.12
878.651	2.12
879.387	2.12
880.124	3.12
880.86	3.12
881.597	3.12
882.333	0.12
883.069	1.12
883.806	0.12
884.542	1.12
885.278	3.12
886.014	2.12
886.749	1.12
887.485	1.12
888.221	2.12
888.957	2.12
889.692	0.12
890.428	2.12
891.163	2.12
891.899	3.12
892.634	1.12
893.369	1.12
894.104	3.12
894.839	3.12
895.574	0.12
896.309	1.12
897.044	1.12
897.779	1.12
898.514	2.12
899.248	0.12
899.983	2.12
900.717	-1.88
901.452	2.12
902.186	1.12
902.92	2.12
903.654	0.12
904.389	1.12
905.123	-0.88
905.857	0.12
906.59	1.12
907.324	2.12
908.058	-0.88
908.792	3.12
909.525	0.12
910.259	3.12
910.992	3.12
911.726	1.12
912.459	-0.88
913.192	2.12
913.925	1.12
914.658	0.12
915.391	1.12
916.124	-0.88
916.857	0.12
917.59	1.12
918.323	-0.88
919.055	0.12
919.788	0.12
920.521	2.12
921.253	0.12
921.985	2.12
922.718	-0.88
923.45	2.12
924.182	1.12
924.914	0.12
925.646	1.12
926.378	1.12
927.11	1.12
927.841	2.12
928.573	0.12
929.305	2.12
930.036	3.12
930.768	2.12
931.499	1.12
932.23	3.12
932.962	3.12
933.693	1.12
934.424	1.12
935.155	1.12
935.886	1.12
936.617	-0.88
937.348	0.12
938.078	1.12
938.809	0.12
939.54	1.12
940.27	3.12
941.001	-0.88
941.731	2.12
942.461	1.12
943.191	0.12
943.922	2.12
944.652	1.12
945.382	1.12
946.112	0.12
946.841	1.12
947.571	1.12
948.301	0.12
949.031	0.12
949.76	1.12
950.49	1.12
951.219	2.12
951.948	1.12
952.678	3.12
953.407	0.12
954.136	1.12
954.865	0.12
955.594	1.12
956.323	0.12
957.052	1.12
957.78	1.12
958.509	2.12
959.238	1.12
959.966	1.12
960.695	3.12
961.423	-1.88
962.151	1.12
962.88	1.12
963.608	1.12
964.336	1.12
965.064	0.12
965.792	2.12
966.52	1.12
967.247	1.12
967.975	0.12
968.703	0.12
969.43	1.12
970.158	1.12
970.885	1.12
971.613	3.12
972.34	0.12
973.067	1.12
973.794	1.12
974.521	1.12
975.248	0.12
975.975	0.12
976.702	0.12
977.429	0.12
978.156	3.12
978.882	2.12
979.609	2.12
980.335	2.12
981.062	1.12
981.788	3.12
982.514	0.12
983.24	1.12
983.967	1.12
984.693	-1.88
985.419	-0.88
986.144	1.12
986.87	2.12
987.596	-0.88
988.322	0.12
989.047	3.12
989.773	2.12
990.498	1.12
991.224	3.12
991.949	-0.88
992.674	3.12
993.399	1.12
994.124	1.12
994.849	-2.88
995.574	-0.88
996.299	0.12
997.024	0.12
997.749	1.12
998.473	1.12
999.198	3.12
999.922	3.12
1000.647	1.12
1001.371	4.12
1002.095	-1.88
1002.82	-1.88
1003.544	-0.88
1004.268	2.12
1004.992	3.12
1005.716	3.12
1006.439	0.12
1007.163	4.12
1007.887	3.12
1008.611	2.12
1009.334	2.12
1010.058	-0.88
1010.781	0.12
1011.504	3.12
1012.228	-0.88
1012.951	0.12
1013.674	0.12
1014.397	1.12
1015.12	-0.88
