节点500_425_QEPB04081__5__15-48-26-505.txt的数据

Date: Wed Nov 12 15:48:26 CST 2025
User: PC
Spectrometer: QEPB0408
触发模式: 0
积分时间 (秒): 1.000000E-2
Scans to average: 1
启用暗噪声校正: true
启用非线性校正: false
滑动平均宽度: 0
X轴模式: Wavelengths
Number of Pixels in Spectrum: 1044
>>>>>Begin Spectral Data<<<<<
220.843	2.12
221.644	2.12
222.444	4.12
223.244	2.12
224.045	4.12
224.845	1.12
225.645	4.12
226.445	3.12
227.245	3.12
228.045	5.12
228.845	2.12
229.645	4.12
230.444	4.12
231.244	4.12
232.043	6.12
232.843	4.12
233.642	5.12
234.442	5.12
235.241	4.12
236.04	7.12
236.839	6.12
237.638	6.12
238.437	5.12
239.236	7.12
240.035	5.12
240.833	7.12
241.632	6.12
242.43	7.12
243.229	9.12
244.027	4.12
244.826	10.12
245.624	7.12
246.422	13.12
247.22	10.12
248.018	8.12
248.816	7.12
249.614	10.12
250.412	9.12
251.21	9.12
252.007	13.12
252.805	10.12
253.602	9.12
254.4	11.12
255.197	14.12
255.994	14.12
256.791	14.12
257.589	12.12
258.386	13.12
259.183	13.12
259.979	17.12
260.776	16.12
261.573	17.12
262.37	15.12
263.166	18.12
263.963	19.12
264.759	21.12
265.556	18.12
266.352	19.12
267.148	18.12
267.944	22.12
268.74	23.12
269.536	24.12
270.332	18.12
271.128	26.12
271.924	25.12
272.719	26.12
273.515	25.12
274.311	23.12
275.106	23.12
275.901	24.12
276.697	24.12
277.492	25.12
278.287	27.12
279.082	25.12
279.877	28.12
280.672	28.12
281.467	28.12
282.262	29.12
283.056	26.12
283.851	27.12
284.646	26.12
285.44	26.12
286.234	25.12
287.029	26.12
287.823	26.12
288.617	29.12
289.411	23.12
290.205	25.12
290.999	24.12
291.793	25.12
292.587	25.12
293.381	21.12
294.174	24.12
294.968	24.12
295.761	20.12
296.555	20.12
297.348	21.12
298.141	21.12
298.935	21.12
299.728	22.12
300.521	20.12
301.314	19.12
302.107	15.12
302.899	20.12
303.692	14.12
304.485	17.12
305.277	19.12
306.07	16.12
306.862	18.12
307.655	16.12
308.447	13.12
309.239	15.12
310.031	15.12
310.823	14.12
311.615	13.12
312.407	11.12
313.199	12.12
313.991	13.12
314.783	14.12
315.574	10.12
316.366	11.12
317.157	11.12
317.949	11.12
318.74	8.12
319.531	10.12
320.322	13.12
321.113	9.12
321.904	11.12
322.695	9.12
323.486	10.12
324.277	10.12
325.068	12.12
325.858	11.12
326.649	9.12
327.439	7.12
328.23	9.12
329.02	9.12
329.81	9.12
330.6	7.12
331.391	7.12
332.181	10.12
332.971	8.12
333.76	8.12
334.55	7.12
335.34	6.12
336.13	9.12
336.919	7.12
337.709	8.12
338.498	10.12
339.287	7.12
340.077	10.12
340.866	9.12
341.655	7.12
342.444	9.12
343.233	10.12
344.022	8.12
344.811	9.12
345.6	7.12
346.388	9.12
347.177	10.12
347.965	8.12
348.754	11.12
349.542	8.12
350.33	7.12
351.119	8.12
351.907	6.12
352.695	8.12
353.483	10.12
354.271	9.12
355.059	7.12
355.846	5.12
356.634	8.12
357.422	9.12
358.209	9.12
358.997	9.12
359.784	6.12
360.571	8.12
361.359	7.12
362.146	8.12
362.933	9.12
363.72	8.12
364.507	8.12
365.294	8.12
366.081	6.12
366.867	7.12
367.654	7.12
368.44	8.12
369.227	6.12
370.013	9.12
370.8	6.12
371.586	8.12
372.372	8.12
373.158	9.12
373.944	7.12
374.73	5.12
375.516	5.12
376.302	8.12
377.088	8.12
377.873	6.12
378.659	5.12
379.445	7.12
380.23	8.12
381.015	5.12
381.801	6.12
382.586	10.12
383.371	7.12
384.156	8.12
384.941	6.12
385.726	6.12
386.511	8.12
387.296	7.12
388.08	7.12
388.865	8.12
389.649	6.12
390.434	7.12
391.218	8.12
392.003	10.12
392.787	9.12
393.571	5.12
394.355	9.12
395.139	6.12
395.923	12.12
396.707	10.12
397.491	7.12
398.274	8.12
399.058	7.12
399.842	9.12
400.625	9.12
401.408	11.12
402.192	10.12
402.975	8.12
403.758	10.12
404.541	10.12
405.324	10.12
406.107	11.12
406.89	13.12
407.673	10.12
408.456	10.12
409.238	11.12
410.021	12.12
410.803	12.12
411.586	10.12
412.368	14.12
413.151	14.12
413.933	13.12
414.715	11.12
415.497	12.12
416.279	13.12
417.061	12.12
417.843	14.12
418.624	11.12
419.406	14.12
420.188	14.12
420.969	17.12
421.751	16.12
422.532	16.12
423.313	16.12
424.095	18.12
424.876	17.12
425.657	17.12
426.438	16.12
427.219	16.12
428	18.12
428.78	19.12
429.561	19.12
430.342	19.12
431.122	19.12
431.903	21.12
432.683	23.12
433.464	22.12
434.244	25.12
435.024	26.12
435.804	24.12
436.584	22.12
437.364	26.12
438.144	27.12
438.924	30.12
439.704	33.12
440.483	35.12
441.263	34.12
442.042	38.12
442.822	36.12
443.601	40.12
444.38	43.12
445.16	47.12
445.939	48.12
446.718	53.12
447.497	55.12
448.276	63.12
449.054	72.12
449.833	75.12
450.612	79.12
451.391	86.12
452.169	90.12
452.948	97.12
453.726	113.12
454.504	117.12
455.282	135.12
456.061	152.12
456.839	170.12
457.617	185.12
458.395	208.12
459.172	236.12
459.95	257.12
460.728	279.12
461.506	312.12
462.283	367.12
463.061	412.12
463.838	460.12
464.615	506.12
465.393	573.12
466.17	637.12
466.947	721.12
467.724	807.12
468.501	903.12
469.278	992.12
470.055	1110.12
470.831	1234.12
471.608	1383.12
472.385	1552.12
473.161	1717.12
473.938	1917.12
474.714	2123.12
475.49	2359.12
476.266	2636.12
477.043	2923.12
477.819	3238.12
478.595	3599.12
479.371	3961.12
480.146	4404.12
480.922	4870.12
481.698	5369.12
482.473	5920.12
483.249	6509.12
484.024	7239.12
484.8	7970.12
485.575	8708.12
486.35	9622.12
487.126	10565.12
487.901	11534.12
488.676	12674.12
489.451	13878.12
490.225	15129.12
491	16437.12
491.775	17890.12
492.55	19401.12
493.324	20968.12
494.099	22474.12
494.873	24015.12
495.647	25653.12
496.422	27311.12
497.196	28973.12
497.97	30618.12
498.744	32108.12
499.518	33573.12
500.292	34838.12
501.066	35944.12
501.839	36910.12
502.613	37634.12
503.387	38135.12
504.16	38594.12
504.934	38452.12
505.707	38147.12
506.48	37694.12
507.253	37065.12
508.027	36421.12
508.8	35519.12
509.573	34461.12
510.346	33325.12
511.118	32231.12
511.891	30869.12
512.664	29605.12
513.437	28259.12
514.209	27011.12
514.982	25868.12
515.754	24732.12
516.526	23568.12
517.298	22618.12
518.071	21624.12
518.843	20782.12
519.615	19879.12
520.387	19109.12
521.159	18402.12
521.93	17733.12
522.702	16930.12
523.474	16312.12
524.245	15632.12
525.017	14861.12
525.788	14171.12
526.56	13544.12
527.331	12817.12
528.102	12208.12
528.873	11619.12
529.644	10996.12
530.415	10442.12
531.186	9885.12
531.957	9372.12
532.728	8833.12
533.498	8326.12
534.269	7862.12
535.039	7412.12
535.81	7025.12
536.58	6596.12
537.351	6228.12
538.121	5897.12
538.891	5568.12
539.661	5314.12
540.431	5029.12
541.201	4734.12
541.971	4514.12
542.741	4277.12
543.51	4055.12
544.28	3845.12
545.05	3665.12
545.819	3497.12
546.588	3297.12
547.358	3140.12
548.127	2980.12
548.896	2818.12
549.665	2661.12
550.434	2535.12
551.203	2389.12
551.972	2256.12
552.741	2152.12
553.51	2029.12
554.278	1900.12
555.047	1800.12
555.815	1674.12
556.584	1599.12
557.352	1506.12
558.121	1435.12
558.889	1331.12
559.657	1261.12
560.425	1180.12
561.193	1121.12
561.961	1053.12
562.729	1006.12
563.496	942.12
564.264	902.12
565.032	854.12
565.799	804.12
566.567	775.12
567.334	729.12
568.101	686.12
568.869	648.12
569.636	609.12
570.403	573.12
571.17	542.12
571.937	505.12
572.704	489.12
573.471	455.12
574.237	431.12
575.004	407.12
575.771	381.12
576.537	363.12
577.303	330.12
578.07	312.12
578.836	299.12
579.602	281.12
580.368	269.12
581.134	256.12
581.9	236.12
582.666	232.12
583.432	217.12
584.198	212.12
584.964	196.12
585.729	188.12
586.495	178.12
587.26	164.12
588.025	153.12
588.791	151.12
589.556	140.12
590.321	139.12
591.086	132.12
591.851	118.12
592.616	123.12
593.381	112.12
594.146	106.12
594.911	102.12
595.675	99.12
596.44	92.12
597.204	85.12
597.969	85.12
598.733	77.12
599.497	81.12
600.261	74.12
601.025	73.12
601.79	63.12
602.553	68.12
603.317	62.12
604.081	58.12
604.845	58.12
605.609	55.12
606.372	49.12
607.136	53.12
607.899	47.12
608.662	46.12
609.426	43.12
610.189	45.12
610.952	42.12
611.715	40.12
612.478	37.12
613.241	38.12
614.004	35.12
614.767	36.12
615.529	33.12
616.292	30.12
617.055	32.12
617.817	30.12
618.579	30.12
619.342	29.12
620.104	26.12
620.866	25.12
621.628	26.12
622.39	25.12
623.152	24.12
623.914	22.12
624.676	24.12
625.438	22.12
626.199	22.12
626.961	17.12
627.722	21.12
628.484	18.12
629.245	20.12
630.006	17.12
630.768	19.12
631.529	17.12
632.29	17.12
633.051	15.12
633.812	14.12
634.573	18.12
635.333	17.12
636.094	12.12
636.855	14.12
637.615	14.12
638.376	14.12
639.136	15.12
639.896	12.12
640.657	11.12
641.417	13.12
642.177	12.12
642.937	9.12
643.697	10.12
644.457	13.12
645.216	10.12
645.976	10.12
646.736	11.12
647.495	12.12
648.255	9.12
649.014	11.12
649.774	10.12
650.533	9.12
651.292	10.12
652.051	8.12
652.81	9.12
653.569	9.12
654.328	10.12
655.087	9.12
655.846	7.12
656.604	9.12
657.363	6.12
658.121	8.12
658.88	10.12
659.638	8.12
660.397	8.12
661.155	6.12
661.913	8.12
662.671	8.12
663.429	7.12
664.187	6.12
664.945	9.12
665.703	7.12
666.46	3.12
667.218	6.12
667.976	7.12
668.733	7.12
669.49	4.12
670.248	5.12
671.005	7.12
671.762	6.12
672.519	8.12
673.276	9.12
674.033	4.12
674.79	6.12
675.547	5.12
676.304	5.12
677.06	6.12
677.817	6.12
678.574	6.12
679.33	5.12
680.086	6.12
680.843	5.12
681.599	6.12
682.355	4.12
683.111	5.12
683.867	4.12
684.623	7.12
685.379	5.12
686.135	4.12
686.89	7.12
687.646	6.12
688.402	5.12
689.157	5.12
689.912	5.12
690.668	2.12
691.423	7.12
692.178	4.12
692.933	6.12
693.688	5.12
694.443	5.12
695.198	6.12
695.953	5.12
696.708	5.12
697.462	4.12
698.217	2.12
698.972	4.12
699.726	6.12
700.48	6.12
701.235	4.12
701.989	3.12
702.743	7.12
703.497	5.12
704.251	6.12
705.005	7.12
705.759	4.12
706.513	7.12
707.266	5.12
708.02	3.12
708.774	5.12
709.527	5.12
710.28	5.12
711.034	6.12
711.787	4.12
712.54	6.12
713.293	5.12
714.046	8.12
714.799	6.12
715.552	3.12
716.305	7.12
717.058	3.12
717.81	4.12
718.563	4.12
719.315	8.12
720.068	4.12
720.82	5.12
721.573	2.12
722.325	7.12
723.077	5.12
723.829	5.12
724.581	4.12
725.333	8.12
726.085	1.12
726.836	6.12
727.588	6.12
728.34	6.12
729.091	4.12
729.843	7.12
730.594	6.12
731.346	4.12
732.097	6.12
732.848	6.12
733.599	4.12
734.35	7.12
735.101	6.12
735.852	7.12
736.603	6.12
737.354	7.12
738.104	5.12
738.855	6.12
739.605	7.12
740.356	7.12
741.106	7.12
741.856	6.12
742.607	6.12
743.357	8.12
744.107	8.12
744.857	8.12
745.607	6.12
746.357	8.12
747.106	8.12
747.856	7.12
748.606	7.12
749.355	8.12
750.105	10.12
750.854	7.12
751.603	10.12
752.353	9.12
753.102	8.12
753.851	9.12
754.6	7.12
755.349	9.12
756.098	8.12
756.847	8.12
757.595	9.12
758.344	8.12
759.093	9.12
759.841	8.12
760.589	12.12
761.338	9.12
762.086	10.12
762.834	10.12
763.582	10.12
764.331	10.12
765.079	10.12
765.826	10.12
766.574	9.12
767.322	8.12
768.07	12.12
768.817	12.12
769.565	11.12
770.312	11.12
771.06	12.12
771.807	11.12
772.554	10.12
773.302	12.12
774.049	11.12
774.796	11.12
775.543	11.12
776.29	10.12
777.036	11.12
777.783	12.12
778.53	13.12
779.276	10.12
780.023	13.12
780.769	13.12
781.516	9.12
782.262	15.12
783.008	13.12
783.754	12.12
784.5	14.12
785.246	12.12
785.992	13.12
786.738	12.12
787.484	12.12
788.23	12.12
788.975	13.12
789.721	10.12
790.466	9.12
791.212	12.12
791.957	10.12
792.702	13.12
793.447	12.12
794.193	10.12
794.938	11.12
795.683	9.12
796.427	10.12
797.172	10.12
797.917	10.12
798.662	9.12
799.406	11.12
800.151	9.12
800.895	10.12
801.64	11.12
802.384	8.12
803.128	9.12
803.872	9.12
804.616	10.12
805.36	9.12
806.104	9.12
806.848	9.12
807.592	7.12
808.336	9.12
809.079	9.12
809.823	6.12
810.566	8.12
811.31	8.12
812.053	6.12
812.796	8.12
813.539	8.12
814.283	8.12
815.026	7.12
815.769	8.12
816.511	5.12
817.254	4.12
817.997	4.12
818.74	5.12
819.482	7.12
820.225	5.12
820.967	7.12
821.71	6.12
822.452	5.12
823.194	4.12
823.936	5.12
824.678	7.12
825.42	6.12
826.162	4.12
826.904	5.12
827.646	3.12
828.388	4.12
829.129	6.12
829.871	6.12
830.612	8.12
831.354	3.12
832.095	5.12
832.836	4.12
833.577	6.12
834.319	2.12
835.06	6.12
835.801	4.12
836.542	2.12
837.282	5.12
838.023	5.12
838.764	5.12
839.504	5.12
840.245	2.12
840.985	5.12
841.726	3.12
842.466	4.12
843.206	2.12
843.946	5.12
844.687	4.12
845.427	6.12
846.166	2.12
846.906	3.12
847.646	3.12
848.386	6.12
849.125	2.12
849.865	5.12
850.605	2.12
851.344	5.12
852.083	5.12
852.823	4.12
853.562	3.12
854.301	1.12
855.04	4.12
855.779	2.12
856.518	4.12
857.257	2.12
857.995	1.12
858.734	2.12
859.473	1.12
860.211	4.12
860.95	2.12
861.688	1.12
862.426	3.12
863.165	3.12
863.903	2.12
864.641	2.12
865.379	2.12
866.117	2.12
866.855	2.12
867.593	4.12
868.33	2.12
869.068	2.12
869.806	1.12
870.543	2.12
871.28	1.12
872.018	0.12
872.755	2.12
873.492	1.12
874.229	2.12
874.967	2.12
875.703	0.12
876.44	0.12
877.177	3.12
877.914	3.12
878.651	0.12
879.387	2.12
880.124	1.12
880.86	3.12
881.597	2.12
882.333	2.12
883.069	0.12
883.806	0.12
884.542	2.12
885.278	2.12
886.014	-0.88
886.749	0.12
887.485	-0.88
888.221	1.12
888.957	0.12
889.692	-1.88
890.428	2.12
891.163	-0.88
891.899	3.12
892.634	0.12
893.369	0.12
894.104	-0.88
894.839	0.12
895.574	0.12
896.309	1.12
897.044	0.12
897.779	1.12
898.514	1.12
899.248	2.12
899.983	1.12
900.717	2.12
901.452	0.12
902.186	1.12
902.92	0.12
903.654	1.12
904.389	1.12
905.123	0.12
905.857	2.12
906.59	0.12
907.324	2.12
908.058	-1.88
908.792	0.12
909.525	0.12
910.259	0.12
910.992	0.12
911.726	1.12
912.459	2.12
913.192	3.12
913.925	1.12
914.658	1.12
915.391	2.12
916.124	0.12
916.857	-0.88
917.59	-1.88
918.323	1.12
919.055	-0.88
919.788	0.12
920.521	0.12
921.253	0.12
921.985	1.12
922.718	-1.88
923.45	1.12
924.182	-0.88
924.914	0.12
925.646	0.12
926.378	0.12
927.11	0.12
927.841	1.12
928.573	1.12
929.305	-1.88
930.036	-1.88
930.768	-0.88
931.499	-0.88
932.23	-1.88
932.962	2.12
933.693	1.12
934.424	0.12
935.155	0.12
935.886	-0.88
936.617	1.12
937.348	1.12
938.078	-0.88
938.809	1.12
939.54	0.12
940.27	-2.88
941.001	-1.88
941.731	0.12
942.461	-1.88
943.191	-0.88
943.922	1.12
944.652	2.12
945.382	0.12
946.112	-0.88
946.841	1.12
947.571	1.12
948.301	1.12
949.031	-1.88
949.76	2.12
950.49	-1.88
951.219	1.12
951.948	0.12
952.678	0.12
953.407	0.12
954.136	0.12
954.865	1.12
955.594	-1.88
956.323	0.12
957.052	-1.88
957.78	-0.88
958.509	2.12
959.238	-1.88
959.966	-1.88
960.695	-0.88
961.423	2.12
962.151	-0.88
962.88	2.12
963.608	-1.88
964.336	1.12
965.064	-1.88
965.792	1.12
966.52	2.12
967.247	2.12
967.975	0.12
968.703	1.12
969.43	0.12
970.158	0.12
970.885	1.12
971.613	1.12
972.34	1.12
973.067	-0.88
973.794	0.12
974.521	0.12
975.248	2.12
975.975	-0.88
976.702	1.12
977.429	1.12
978.156	1.12
978.882	-0.88
979.609	1.12
980.335	1.12
981.062	0.12
981.788	-1.88
982.514	-0.88
983.24	0.12
983.967	3.12
984.693	2.12
985.419	-1.88
986.144	2.12
986.87	0.12
987.596	1.12
988.322	0.12
989.047	2.12
989.773	-1.88
990.498	1.12
991.224	1.12
991.949	2.12
992.674	0.12
993.399	-0.88
994.124	0.12
994.849	-1.88
995.574	0.12
996.299	0.12
997.024	0.12
997.749	2.12
998.473	-0.88
999.198	0.12
999.922	0.12
1000.647	1.12
1001.371	4.12
1002.095	-2.88
1002.82	-0.88
1003.544	-1.88
1004.268	4.12
1004.992	2.12
1005.716	2.12
1006.439	2.12
1007.163	1.12
1007.887	2.12
1008.611	0.12
1009.334	-0.88
1010.058	1.12
1010.781	1.12
1011.504	1.12
1012.228	-1.88
1012.951	0.12
1013.674	-0.88
1014.397	2.12
1015.12	0.12
