节点500_145_QEPB04081__89__11-30-23-622.txt的数据

Date: Wed Nov 12 11:30:23 CST 2025
User: PC
Spectrometer: QEPB0408
触发模式: 0
积分时间 (秒): 1.000000E-2
Scans to average: 1
启用暗噪声校正: true
启用非线性校正: false
滑动平均宽度: 0
X轴模式: Wavelengths
Number of Pixels in Spectrum: 1044
>>>>>Begin Spectral Data<<<<<
220.843	-2.38
221.644	-0.38
222.444	-3.38
223.244	-0.38
224.045	-0.38
224.845	0.62
225.645	0.62
226.445	-0.38
227.245	0.62
228.045	-0.38
228.845	-1.38
229.645	0.62
230.444	0.62
231.244	2.62
232.043	0.62
232.843	-2.38
233.642	-1.38
234.442	-0.38
235.241	1.62
236.04	-0.38
236.839	0.62
237.638	-2.38
238.437	0.62
239.236	-0.38
240.035	-1.38
240.833	-0.38
241.632	0.62
242.43	2.62
243.229	-1.38
244.027	2.62
244.826	2.62
245.624	0.62
246.422	-1.38
247.22	0.62
248.018	0.62
248.816	2.62
249.614	1.62
250.412	0.62
251.21	-0.38
252.007	2.62
252.805	1.62
253.602	1.62
254.4	1.62
255.197	1.62
255.994	3.62
256.791	3.62
257.589	1.62
258.386	1.62
259.183	4.62
259.979	1.62
260.776	3.62
261.573	5.62
262.37	1.62
263.166	4.62
263.963	3.62
264.759	7.62
265.556	7.62
266.352	5.62
267.148	6.62
267.944	5.62
268.74	6.62
269.536	8.62
270.332	5.62
271.128	7.62
271.924	6.62
272.719	7.62
273.515	8.62
274.311	9.62
275.106	9.62
275.901	6.62
276.697	5.62
277.492	9.62
278.287	10.62
279.082	7.62
279.877	9.62
280.672	7.62
281.467	10.62
282.262	7.62
283.056	9.62
283.851	9.62
284.646	8.62
285.44	11.62
286.234	11.62
287.029	13.62
287.823	8.62
288.617	10.62
289.411	9.62
290.205	9.62
290.999	12.62
291.793	10.62
292.587	8.62
293.381	9.62
294.174	9.62
294.968	8.62
295.761	9.62
296.555	13.62
297.348	8.62
298.141	9.62
298.935	11.62
299.728	8.62
300.521	9.62
301.314	8.62
302.107	6.62
302.899	6.62
303.692	9.62
304.485	6.62
305.277	6.62
306.07	7.62
306.862	7.62
307.655	9.62
308.447	5.62
309.239	6.62
310.031	4.62
310.823	6.62
311.615	6.62
312.407	4.62
313.199	4.62
313.991	6.62
314.783	4.62
315.574	2.62
316.366	3.62
317.157	4.62
317.949	2.62
318.74	4.62
319.531	4.62
320.322	0.62
321.113	5.62
321.904	3.62
322.695	4.62
323.486	2.62
324.277	4.62
325.068	5.62
325.858	3.62
326.649	3.62
327.439	2.62
328.23	2.62
329.02	4.62
329.81	3.62
330.6	3.62
331.391	4.62
332.181	3.62
332.971	3.62
333.76	3.62
334.55	6.62
335.34	3.62
336.13	5.62
336.919	2.62
337.709	4.62
338.498	2.62
339.287	3.62
340.077	5.62
340.866	3.62
341.655	2.62
342.444	3.62
343.233	3.62
344.022	-0.38
344.811	3.62
345.6	6.62
346.388	0.62
347.177	2.62
347.965	2.62
348.754	3.62
349.542	-0.38
350.33	2.62
351.119	3.62
351.907	3.62
352.695	-0.38
353.483	1.62
354.271	3.62
355.059	1.62
355.846	4.62
356.634	1.62
357.422	1.62
358.209	0.62
358.997	2.62
359.784	1.62
360.571	3.62
361.359	2.62
362.146	1.62
362.933	1.62
363.72	2.62
364.507	1.62
365.294	0.62
366.081	3.62
366.867	2.62
367.654	2.62
368.44	1.62
369.227	3.62
370.013	1.62
370.8	2.62
371.586	1.62
372.372	3.62
373.158	2.62
373.944	4.62
374.73	2.62
375.516	-1.38
376.302	2.62
377.088	1.62
377.873	-1.38
378.659	3.62
379.445	-0.38
380.23	1.62
381.015	0.62
381.801	3.62
382.586	2.62
383.371	2.62
384.156	1.62
384.941	1.62
385.726	2.62
386.511	2.62
387.296	2.62
388.08	0.62
388.865	-0.38
389.649	5.62
390.434	0.62
391.218	1.62
392.003	3.62
392.787	3.62
393.571	4.62
394.355	1.62
395.139	1.62
395.923	4.62
396.707	2.62
397.491	4.62
398.274	2.62
399.058	2.62
399.842	2.62
400.625	4.62
401.408	1.62
402.192	2.62
402.975	2.62
403.758	4.62
404.541	4.62
405.324	4.62
406.107	3.62
406.89	4.62
407.673	1.62
408.456	2.62
409.238	3.62
410.021	7.62
410.803	4.62
411.586	1.62
412.368	3.62
413.151	3.62
413.933	1.62
414.715	6.62
415.497	4.62
416.279	2.62
417.061	4.62
417.843	2.62
418.624	4.62
419.406	3.62
420.188	5.62
420.969	3.62
421.751	4.62
422.532	3.62
423.313	5.62
424.095	6.62
424.876	5.62
425.657	5.62
426.438	6.62
427.219	6.62
428	8.62
428.78	7.62
429.561	6.62
430.342	5.62
431.122	5.62
431.903	6.62
432.683	9.62
433.464	6.62
434.244	6.62
435.024	8.62
435.804	8.62
436.584	8.62
437.364	10.62
438.144	8.62
438.924	10.62
439.704	9.62
440.483	8.62
441.263	12.62
442.042	11.62
442.822	12.62
443.601	16.62
444.38	14.62
445.16	13.62
445.939	17.62
446.718	16.62
447.497	19.62
448.276	16.62
449.054	23.62
449.833	21.62
450.612	23.62
451.391	24.62
452.169	26.62
452.948	30.62
453.726	32.62
454.504	33.62
455.282	37.62
456.061	40.62
456.839	45.62
457.617	45.62
458.395	52.62
459.172	60.62
459.95	65.62
460.728	75.62
461.506	84.62
462.283	90.62
463.061	104.62
463.838	112.62
464.615	125.62
465.393	142.62
466.17	158.62
466.947	178.62
467.724	200.62
468.501	223.62
469.278	248.62
470.055	274.62
470.831	310.62
471.608	340.62
472.385	376.62
473.161	431.62
473.938	478.62
474.714	538.62
475.49	595.62
476.266	655.62
477.043	738.62
477.819	817.62
478.595	909.62
479.371	1008.62
480.146	1125.62
480.922	1249.62
481.698	1372.62
482.473	1541.62
483.249	1702.62
484.024	1889.62
484.8	2100.62
485.575	2320.62
486.35	2546.62
487.126	2843.62
487.901	3165.62
488.676	3494.62
489.451	3865.62
490.225	4265.62
491	4695.62
491.775	5213.62
492.55	5729.62
493.324	6316.62
494.099	6900.62
494.873	7576.62
495.647	8285.62
496.422	9010.62
497.196	9755.62
497.97	10556.62
498.744	11373.62
499.518	12208.62
500.292	12983.62
501.066	13733.62
501.839	14453.62
502.613	15140.62
503.387	15763.62
504.16	16275.62
504.934	16664.62
505.707	17019.62
506.48	17255.62
507.253	17253.62
508.027	17207.62
508.8	17069.62
509.573	16830.62
510.346	16496.62
511.118	15975.62
511.891	15506.62
512.664	14905.62
513.437	14336.62
514.209	13793.62
514.982	13141.62
515.754	12548.62
516.526	11979.62
517.298	11401.62
518.071	10883.62
518.843	10432.62
519.615	9948.62
520.387	9554.62
521.159	9197.62
521.93	8799.62
522.702	8488.62
523.474	8125.62
524.245	7812.62
525.017	7466.62
525.788	7229.62
526.56	6908.62
527.331	6623.62
528.102	6302.62
528.873	6014.62
529.644	5708.62
530.415	5454.62
531.186	5184.62
531.957	4904.62
532.728	4638.62
533.498	4383.62
534.269	4156.62
535.039	3905.62
535.81	3683.62
536.58	3488.62
537.351	3287.62
538.121	3094.62
538.891	2922.62
539.661	2768.62
540.431	2614.62
541.201	2495.62
541.971	2348.62
542.741	2231.62
543.51	2107.62
544.28	2004.62
545.05	1916.62
545.819	1810.62
546.588	1716.62
547.358	1632.62
548.127	1539.62
548.896	1497.62
549.665	1396.62
550.434	1337.62
551.203	1271.62
551.972	1201.62
552.741	1131.62
553.51	1073.62
554.278	996.62
555.047	946.62
555.815	895.62
556.584	853.62
557.352	791.62
558.121	745.62
558.889	704.62
559.657	666.62
560.425	628.62
561.193	593.62
561.961	559.62
562.729	529.62
563.496	494.62
564.264	465.62
565.032	442.62
565.799	423.62
566.567	397.62
567.334	373.62
568.101	353.62
568.869	332.62
569.636	313.62
570.403	294.62
571.17	282.62
571.937	258.62
572.704	242.62
573.471	233.62
574.237	224.62
575.004	206.62
575.771	195.62
576.537	185.62
577.303	173.62
578.07	158.62
578.836	149.62
579.602	140.62
580.368	129.62
581.134	125.62
581.9	121.62
582.666	111.62
583.432	113.62
584.198	104.62
584.964	96.62
585.729	91.62
586.495	84.62
587.26	85.62
588.025	76.62
588.791	74.62
589.556	69.62
590.321	65.62
591.086	63.62
591.851	61.62
592.616	56.62
593.381	54.62
594.146	52.62
594.911	46.62
595.675	43.62
596.44	41.62
597.204	40.62
597.969	39.62
598.733	39.62
599.497	35.62
600.261	34.62
601.025	34.62
601.79	33.62
602.553	28.62
603.317	32.62
604.081	26.62
604.845	28.62
605.609	24.62
606.372	25.62
607.136	22.62
607.899	19.62
608.662	21.62
609.426	17.62
610.189	19.62
610.952	16.62
611.715	17.62
612.478	18.62
613.241	14.62
614.004	17.62
614.767	13.62
615.529	13.62
616.292	12.62
617.055	14.62
617.817	13.62
618.579	10.62
619.342	11.62
620.104	11.62
620.866	11.62
621.628	10.62
622.39	9.62
623.152	11.62
623.914	8.62
624.676	9.62
625.438	8.62
626.199	9.62
626.961	8.62
627.722	8.62
628.484	8.62
629.245	5.62
630.006	6.62
630.768	7.62
631.529	8.62
632.29	8.62
633.051	7.62
633.812	7.62
634.573	8.62
635.333	7.62
636.094	5.62
636.855	5.62
637.615	6.62
638.376	6.62
639.136	3.62
639.896	3.62
640.657	6.62
641.417	2.62
642.177	5.62
642.937	3.62
643.697	5.62
644.457	1.62
645.216	2.62
645.976	4.62
646.736	1.62
647.495	5.62
648.255	4.62
649.014	4.62
649.774	4.62
650.533	3.62
651.292	3.62
652.051	5.62
652.81	2.62
653.569	1.62
654.328	2.62
655.087	-0.38
655.846	1.62
656.604	2.62
657.363	0.62
658.121	2.62
658.88	4.62
659.638	5.62
660.397	1.62
661.155	1.62
661.913	1.62
662.671	2.62
663.429	4.62
664.187	2.62
664.945	1.62
665.703	0.62
666.46	2.62
667.218	2.62
667.976	2.62
668.733	2.62
669.49	0.62
670.248	1.62
671.005	0.62
671.762	2.62
672.519	4.62
673.276	0.62
674.033	2.62
674.79	2.62
675.547	0.62
676.304	2.62
677.06	2.62
677.817	0.62
678.574	1.62
679.33	4.62
680.086	3.62
680.843	1.62
681.599	1.62
682.355	2.62
683.111	1.62
683.867	-0.38
684.623	1.62
685.379	3.62
686.135	-0.38
686.89	1.62
687.646	1.62
688.402	1.62
689.157	1.62
689.912	0.62
690.668	1.62
691.423	2.62
692.178	4.62
692.933	0.62
693.688	1.62
694.443	0.62
695.198	1.62
695.953	2.62
696.708	1.62
697.462	2.62
698.217	1.62
698.972	2.62
699.726	0.62
700.48	0.62
701.235	0.62
701.989	1.62
702.743	2.62
703.497	2.62
704.251	1.62
705.005	2.62
705.759	1.62
706.513	0.62
707.266	1.62
708.02	0.62
708.774	0.62
709.527	1.62
710.28	1.62
711.034	1.62
711.787	1.62
712.54	-1.38
713.293	0.62
714.046	1.62
714.799	1.62
715.552	0.62
716.305	1.62
717.058	0.62
717.81	2.62
718.563	0.62
719.315	1.62
720.068	-0.38
720.82	3.62
721.573	1.62
722.325	2.62
723.077	0.62
723.829	0.62
724.581	1.62
725.333	1.62
726.085	0.62
726.836	0.62
727.588	0.62
728.34	1.62
729.091	1.62
729.843	1.62
730.594	1.62
731.346	2.62
732.097	0.62
732.848	2.62
733.599	-0.38
734.35	1.62
735.101	0.62
735.852	-0.38
736.603	0.62
737.354	0.62
738.104	3.62
738.855	0.62
739.605	-0.38
740.356	1.62
741.106	1.62
741.856	1.62
742.607	-0.38
743.357	3.62
744.107	3.62
744.857	2.62
745.607	2.62
746.357	0.62
747.106	3.62
747.856	1.62
748.606	1.62
749.355	2.62
750.105	2.62
750.854	1.62
751.603	1.62
752.353	3.62
753.102	1.62
753.851	1.62
754.6	4.62
755.349	0.62
756.098	0.62
756.847	0.62
757.595	2.62
758.344	1.62
759.093	5.62
759.841	1.62
760.589	1.62
761.338	1.62
762.086	3.62
762.834	3.62
763.582	2.62
764.331	3.62
765.079	5.62
765.826	0.62
766.574	2.62
767.322	1.62
768.07	4.62
768.817	3.62
769.565	2.62
770.312	3.62
771.06	5.62
771.807	3.62
772.554	4.62
773.302	4.62
774.049	5.62
774.796	5.62
775.543	1.62
776.29	4.62
777.036	4.62
777.783	3.62
778.53	8.62
779.276	6.62
780.023	4.62
780.769	6.62
781.516	7.62
782.262	2.62
783.008	4.62
783.754	4.62
784.5	6.62
785.246	6.62
785.992	6.62
786.738	5.62
787.484	6.62
788.23	2.62
788.975	4.62
789.721	5.62
790.466	4.62
791.212	5.62
791.957	2.62
792.702	5.62
793.447	3.62
794.193	2.62
794.938	4.62
795.683	4.62
796.427	5.62
797.172	4.62
797.917	5.62
798.662	3.62
799.406	4.62
800.151	1.62
800.895	3.62
801.64	5.62
802.384	6.62
803.128	4.62
803.872	4.62
804.616	3.62
805.36	2.62
806.104	2.62
806.848	3.62
807.592	3.62
808.336	1.62
809.079	3.62
809.823	1.62
810.566	2.62
811.31	4.62
812.053	5.62
812.796	0.62
813.539	1.62
814.283	1.62
815.026	2.62
815.769	5.62
816.511	1.62
817.254	2.62
817.997	1.62
818.74	2.62
819.482	4.62
820.225	3.62
820.967	2.62
821.71	3.62
822.452	2.62
823.194	1.62
823.936	2.62
824.678	2.62
825.42	2.62
826.162	4.62
826.904	1.62
827.646	4.62
828.388	1.62
829.129	1.62
829.871	1.62
830.612	1.62
831.354	2.62
832.095	2.62
832.836	3.62
833.577	2.62
834.319	3.62
835.06	0.62
835.801	2.62
836.542	1.62
837.282	3.62
838.023	3.62
838.764	4.62
839.504	0.62
840.245	2.62
840.985	2.62
841.726	2.62
842.466	1.62
843.206	1.62
843.946	1.62
844.687	1.62
845.427	0.62
846.166	-1.38
846.906	2.62
847.646	-0.38
848.386	2.62
849.125	1.62
849.865	2.62
850.605	2.62
851.344	1.62
852.083	1.62
852.823	1.62
853.562	0.62
854.301	2.62
855.04	0.62
855.779	1.62
856.518	-0.38
857.257	1.62
857.995	0.62
858.734	-0.38
859.473	0.62
860.211	0.62
860.95	2.62
861.688	0.62
862.426	0.62
863.165	0.62
863.903	0.62
864.641	1.62
865.379	-2.38
866.117	2.62
866.855	0.62
867.593	1.62
868.33	0.62
869.068	0.62
869.806	1.62
870.543	0.62
871.28	1.62
872.018	1.62
872.755	0.62
873.492	0.62
874.229	-0.38
874.967	0.62
875.703	1.62
876.44	-0.38
877.177	0.62
877.914	0.62
878.651	0.62
879.387	0.62
880.124	-0.38
880.86	0.62
881.597	1.62
882.333	-1.38
883.069	-0.38
883.806	2.62
884.542	2.62
885.278	-0.38
886.014	-2.38
886.749	0.62
887.485	-2.38
888.221	0.62
888.957	0.62
889.692	-0.38
890.428	1.62
891.163	-1.38
891.899	-2.38
892.634	0.62
893.369	0.62
894.104	-0.38
894.839	-1.38
895.574	-1.38
896.309	-2.38
897.044	0.62
897.779	1.62
898.514	0.62
899.248	0.62
899.983	-0.38
900.717	0.62
901.452	-0.38
902.186	-1.38
902.92	-1.38
903.654	1.62
904.389	-0.38
905.123	-2.38
905.857	-0.38
906.59	-1.38
907.324	-0.38
908.058	2.62
908.792	-2.38
909.525	1.62
910.259	-0.38
910.992	-0.38
911.726	1.62
912.459	0.62
913.192	-2.38
913.925	1.62
914.658	1.62
915.391	-0.38
916.124	0.62
916.857	0.62
917.59	-1.38
918.323	0.62
919.055	-0.38
919.788	-1.38
920.521	0.62
921.253	1.62
921.985	-0.38
922.718	-0.38
923.45	-0.38
924.182	0.62
924.914	0.62
925.646	-3.38
926.378	0.62
927.11	-0.38
927.841	-1.38
928.573	0.62
929.305	-0.38
930.036	2.62
930.768	-3.38
931.499	-0.38
932.23	0.62
932.962	-0.38
933.693	2.62
934.424	-0.38
935.155	-0.38
935.886	-1.38
936.617	0.62
937.348	0.62
938.078	-2.38
938.809	-0.38
939.54	-1.38
940.27	0.62
941.001	0.62
941.731	1.62
942.461	1.62
943.191	-0.38
943.922	-0.38
944.652	0.62
945.382	2.62
946.112	-2.38
946.841	-0.38
947.571	-0.38
948.301	0.62
949.031	-0.38
949.76	-3.38
950.49	2.62
951.219	-2.38
951.948	1.62
952.678	0.62
953.407	-0.38
954.136	0.62
954.865	-0.38
955.594	-1.38
956.323	0.62
957.052	1.62
957.78	1.62
958.509	0.62
959.238	-0.38
959.966	-1.38
960.695	0.62
961.423	-0.38
962.151	1.62
962.88	0.62
963.608	-1.38
964.336	-0.38
965.064	0.62
965.792	0.62
966.52	-1.38
967.247	1.62
967.975	-2.38
968.703	-2.38
969.43	1.62
970.158	-1.38
970.885	-0.38
971.613	-1.38
972.34	-0.38
973.067	-0.38
973.794	-1.38
974.521	-0.38
975.248	-0.38
975.975	0.62
976.702	-2.38
977.429	0.62
978.156	0.62
978.882	-0.38
979.609	-0.38
980.335	-0.38
981.062	0.62
981.788	-0.38
982.514	1.62
983.24	0.62
983.967	-0.38
984.693	-0.38
985.419	1.62
986.144	-1.38
986.87	-0.38
987.596	-2.38
988.322	-0.38
989.047	-0.38
989.773	-0.38
990.498	1.62
991.224	-0.38
991.949	0.62
992.674	0.62
993.399	-0.38
994.124	-0.38
994.849	-0.38
995.574	0.62
996.299	1.62
997.024	0.62
997.749	1.62
998.473	-0.38
999.198	-0.38
999.922	-2.38
1000.647	1.62
1001.371	3.62
1002.095	-0.38
1002.82	-1.38
1003.544	-2.38
1004.268	-0.38
1004.992	-0.38
1005.716	-3.38
1006.439	-0.38
1007.163	1.62
1007.887	1.62
1008.611	0.62
1009.334	0.62
1010.058	-0.38
1010.781	1.62
1011.504	-2.38
1012.228	1.62
1012.951	-1.38
1013.674	-0.38
1014.397	1.62
1015.12	0.62
