节点500_145_QEPB04081__238__11-32-47-466.txt的数据

Date: Wed Nov 12 11:32:47 CST 2025
User: PC
Spectrometer: QEPB0408
触发模式: 0
积分时间 (秒): 1.000000E-2
Scans to average: 1
启用暗噪声校正: true
启用非线性校正: false
滑动平均宽度: 0
X轴模式: Wavelengths
Number of Pixels in Spectrum: 1044
>>>>>Begin Spectral Data<<<<<
220.843	0.88
221.644	-2.12
222.444	-2.12
223.244	0.88
224.045	-0.12
224.845	0.88
225.645	-0.12
226.445	0.88
227.245	0.88
228.045	-0.12
228.845	0.88
229.645	-2.12
230.444	-0.12
231.244	0.88
232.043	-0.12
232.843	-0.12
233.642	2.88
234.442	-1.12
235.241	0.88
236.04	-0.12
236.839	0.88
237.638	0.88
238.437	-0.12
239.236	-2.12
240.035	0.88
240.833	0.88
241.632	0.88
242.43	0.88
243.229	1.88
244.027	0.88
244.826	-0.12
245.624	1.88
246.422	1.88
247.22	0.88
248.018	1.88
248.816	-0.12
249.614	1.88
250.412	0.88
251.21	2.88
252.007	1.88
252.805	4.88
253.602	2.88
254.4	1.88
255.197	1.88
255.994	1.88
256.791	4.88
257.589	4.88
258.386	5.88
259.183	4.88
259.979	3.88
260.776	3.88
261.573	4.88
262.37	4.88
263.166	4.88
263.963	6.88
264.759	4.88
265.556	4.88
266.352	5.88
267.148	6.88
267.944	6.88
268.74	5.88
269.536	7.88
270.332	7.88
271.128	7.88
271.924	8.88
272.719	4.88
273.515	8.88
274.311	4.88
275.106	7.88
275.901	5.88
276.697	5.88
277.492	9.88
278.287	10.88
279.082	11.88
279.877	10.88
280.672	10.88
281.467	9.88
282.262	7.88
283.056	7.88
283.851	9.88
284.646	10.88
285.44	9.88
286.234	10.88
287.029	10.88
287.823	10.88
288.617	9.88
289.411	10.88
290.205	11.88
290.999	10.88
291.793	10.88
292.587	11.88
293.381	10.88
294.174	11.88
294.968	9.88
295.761	10.88
296.555	8.88
297.348	7.88
298.141	8.88
298.935	9.88
299.728	8.88
300.521	7.88
301.314	9.88
302.107	7.88
302.899	8.88
303.692	7.88
304.485	6.88
305.277	6.88
306.07	4.88
306.862	8.88
307.655	5.88
308.447	7.88
309.239	6.88
310.031	6.88
310.823	5.88
311.615	5.88
312.407	5.88
313.199	5.88
313.991	7.88
314.783	4.88
315.574	4.88
316.366	6.88
317.157	2.88
317.949	5.88
318.74	5.88
319.531	5.88
320.322	4.88
321.113	4.88
321.904	4.88
322.695	3.88
323.486	4.88
324.277	4.88
325.068	2.88
325.858	3.88
326.649	3.88
327.439	4.88
328.23	1.88
329.02	2.88
329.81	4.88
330.6	2.88
331.391	2.88
332.181	2.88
332.971	5.88
333.76	5.88
334.55	1.88
335.34	1.88
336.13	2.88
336.919	4.88
337.709	2.88
338.498	3.88
339.287	2.88
340.077	1.88
340.866	1.88
341.655	2.88
342.444	2.88
343.233	3.88
344.022	2.88
344.811	1.88
345.6	3.88
346.388	2.88
347.177	2.88
347.965	4.88
348.754	2.88
349.542	4.88
350.33	2.88
351.119	1.88
351.907	1.88
352.695	1.88
353.483	2.88
354.271	0.88
355.059	1.88
355.846	0.88
356.634	2.88
357.422	2.88
358.209	1.88
358.997	2.88
359.784	1.88
360.571	3.88
361.359	-0.12
362.146	2.88
362.933	2.88
363.72	2.88
364.507	1.88
365.294	0.88
366.081	2.88
366.867	1.88
367.654	3.88
368.44	1.88
369.227	2.88
370.013	2.88
370.8	1.88
371.586	1.88
372.372	3.88
373.158	1.88
373.944	1.88
374.73	0.88
375.516	1.88
376.302	0.88
377.088	3.88
377.873	3.88
378.659	1.88
379.445	2.88
380.23	1.88
381.015	3.88
381.801	3.88
382.586	0.88
383.371	-1.12
384.156	1.88
384.941	3.88
385.726	3.88
386.511	3.88
387.296	0.88
388.08	1.88
388.865	2.88
389.649	1.88
390.434	2.88
391.218	1.88
392.003	2.88
392.787	2.88
393.571	1.88
394.355	2.88
395.139	2.88
395.923	2.88
396.707	3.88
397.491	2.88
398.274	5.88
399.058	4.88
399.842	2.88
400.625	-0.12
401.408	4.88
402.192	2.88
402.975	4.88
403.758	3.88
404.541	3.88
405.324	3.88
406.107	3.88
406.89	4.88
407.673	3.88
408.456	4.88
409.238	0.88
410.021	2.88
410.803	0.88
411.586	1.88
412.368	6.88
413.151	4.88
413.933	2.88
414.715	3.88
415.497	4.88
416.279	3.88
417.061	2.88
417.843	2.88
418.624	4.88
419.406	3.88
420.188	2.88
420.969	4.88
421.751	7.88
422.532	3.88
423.313	6.88
424.095	6.88
424.876	6.88
425.657	4.88
426.438	4.88
427.219	4.88
428	7.88
428.78	7.88
429.561	6.88
430.342	8.88
431.122	7.88
431.903	5.88
432.683	6.88
433.464	7.88
434.244	10.88
435.024	8.88
435.804	8.88
436.584	6.88
437.364	8.88
438.144	9.88
438.924	11.88
439.704	10.88
440.483	10.88
441.263	13.88
442.042	11.88
442.822	12.88
443.601	13.88
444.38	11.88
445.16	16.88
445.939	16.88
446.718	17.88
447.497	18.88
448.276	20.88
449.054	18.88
449.833	22.88
450.612	26.88
451.391	28.88
452.169	26.88
452.948	29.88
453.726	34.88
454.504	37.88
455.282	38.88
456.061	43.88
456.839	50.88
457.617	50.88
458.395	55.88
459.172	65.88
459.95	69.88
460.728	79.88
461.506	89.88
462.283	98.88
463.061	110.88
463.838	123.88
464.615	130.88
465.393	151.88
466.17	172.88
466.947	186.88
467.724	210.88
468.501	233.88
469.278	256.88
470.055	289.88
470.831	318.88
471.608	362.88
472.385	404.88
473.161	447.88
473.938	499.88
474.714	560.88
475.49	617.88
476.266	686.88
477.043	759.88
477.819	844.88
478.595	937.88
479.371	1041.88
480.146	1143.88
480.922	1269.88
481.698	1401.88
482.473	1542.88
483.249	1695.88
484.024	1890.88
484.8	2068.88
485.575	2292.88
486.35	2516.88
487.126	2793.88
487.901	3084.88
488.676	3400.88
489.451	3754.88
490.225	4111.88
491	4530.88
491.775	4981.88
492.55	5439.88
493.324	5989.88
494.099	6579.88
494.873	7174.88
495.647	7804.88
496.422	8499.88
497.196	9220.88
497.97	9895.88
498.744	10709.88
499.518	11443.88
500.292	12238.88
501.066	12919.88
501.839	13601.88
502.613	14315.88
503.387	14946.88
504.16	15507.88
504.934	15925.88
505.707	16250.88
506.48	16544.88
507.253	16694.88
508.027	16723.88
508.8	16616.88
509.573	16438.88
510.346	16149.88
511.118	15775.88
511.891	15387.88
512.664	14839.88
513.437	14329.88
514.209	13798.88
514.982	13236.88
515.754	12678.88
516.526	12137.88
517.298	11609.88
518.071	11062.88
518.843	10551.88
519.615	10102.88
520.387	9712.88
521.159	9292.88
521.93	8928.88
522.702	8586.88
523.474	8231.88
524.245	7899.88
525.017	7600.88
525.788	7297.88
526.56	7012.88
527.331	6711.88
528.102	6389.88
528.873	6125.88
529.644	5834.88
530.415	5579.88
531.186	5299.88
531.957	5041.88
532.728	4789.88
533.498	4496.88
534.269	4254.88
535.039	4025.88
535.81	3821.88
536.58	3582.88
537.351	3393.88
538.121	3205.88
538.891	3037.88
539.661	2869.88
540.431	2692.88
541.201	2575.88
541.971	2424.88
542.741	2285.88
543.51	2180.88
544.28	2056.88
545.05	1959.88
545.819	1871.88
546.588	1780.88
547.358	1690.88
548.127	1611.88
548.896	1530.88
549.665	1448.88
550.434	1387.88
551.203	1314.88
551.972	1235.88
552.741	1166.88
553.51	1116.88
554.278	1045.88
555.047	976.88
555.815	923.88
556.584	883.88
557.352	836.88
558.121	796.88
558.889	732.88
559.657	688.88
560.425	650.88
561.193	612.88
561.961	571.88
562.729	539.88
563.496	516.88
564.264	494.88
565.032	459.88
565.799	427.88
566.567	407.88
567.334	379.88
568.101	362.88
568.869	342.88
569.636	324.88
570.403	305.88
571.17	285.88
571.937	271.88
572.704	257.88
573.471	246.88
574.237	227.88
575.004	209.88
575.771	205.88
576.537	190.88
577.303	178.88
578.07	166.88
578.836	157.88
579.602	147.88
580.368	140.88
581.134	129.88
581.9	127.88
582.666	120.88
583.432	112.88
584.198	104.88
584.964	103.88
585.729	97.88
586.495	90.88
587.26	86.88
588.025	82.88
588.791	77.88
589.556	74.88
590.321	69.88
591.086	66.88
591.851	63.88
592.616	59.88
593.381	54.88
594.146	53.88
594.911	50.88
595.675	47.88
596.44	47.88
597.204	42.88
597.969	43.88
598.733	38.88
599.497	36.88
600.261	37.88
601.025	32.88
601.79	32.88
602.553	30.88
603.317	26.88
604.081	28.88
604.845	29.88
605.609	25.88
606.372	24.88
607.136	24.88
607.899	22.88
608.662	21.88
609.426	18.88
610.189	17.88
610.952	17.88
611.715	18.88
612.478	17.88
613.241	16.88
614.004	16.88
614.767	18.88
615.529	16.88
616.292	13.88
617.055	14.88
617.817	15.88
618.579	14.88
619.342	12.88
620.104	12.88
620.866	10.88
621.628	10.88
622.39	12.88
623.152	8.88
623.914	8.88
624.676	7.88
625.438	7.88
626.199	9.88
626.961	11.88
627.722	6.88
628.484	5.88
629.245	6.88
630.006	5.88
630.768	6.88
631.529	6.88
632.29	6.88
633.051	8.88
633.812	5.88
634.573	5.88
635.333	4.88
636.094	6.88
636.855	4.88
637.615	6.88
638.376	8.88
639.136	6.88
639.896	4.88
640.657	1.88
641.417	5.88
642.177	4.88
642.937	2.88
643.697	3.88
644.457	3.88
645.216	2.88
645.976	4.88
646.736	4.88
647.495	6.88
648.255	4.88
649.014	2.88
649.774	5.88
650.533	1.88
651.292	4.88
652.051	4.88
652.81	3.88
653.569	2.88
654.328	3.88
655.087	3.88
655.846	1.88
656.604	5.88
657.363	3.88
658.121	1.88
658.88	4.88
659.638	1.88
660.397	2.88
661.155	0.88
661.913	3.88
662.671	3.88
663.429	3.88
664.187	4.88
664.945	3.88
665.703	3.88
666.46	2.88
667.218	3.88
667.976	4.88
668.733	1.88
669.49	4.88
670.248	0.88
671.005	3.88
671.762	1.88
672.519	2.88
673.276	0.88
674.033	4.88
674.79	1.88
675.547	0.88
676.304	2.88
677.06	1.88
677.817	3.88
678.574	2.88
679.33	1.88
680.086	1.88
680.843	0.88
681.599	3.88
682.355	0.88
683.111	2.88
683.867	4.88
684.623	-0.12
685.379	3.88
686.135	3.88
686.89	2.88
687.646	0.88
688.402	1.88
689.157	4.88
689.912	-0.12
690.668	2.88
691.423	-0.12
692.178	-0.12
692.933	1.88
693.688	2.88
694.443	0.88
695.198	1.88
695.953	1.88
696.708	1.88
697.462	0.88
698.217	-0.12
698.972	1.88
699.726	-0.12
700.48	0.88
701.235	1.88
701.989	0.88
702.743	4.88
703.497	0.88
704.251	-0.12
705.005	1.88
705.759	0.88
706.513	0.88
707.266	-0.12
708.02	2.88
708.774	1.88
709.527	-0.12
710.28	1.88
711.034	1.88
711.787	1.88
712.54	1.88
713.293	4.88
714.046	0.88
714.799	-0.12
715.552	-0.12
716.305	1.88
717.058	1.88
717.81	1.88
718.563	1.88
719.315	1.88
720.068	2.88
720.82	3.88
721.573	-0.12
722.325	3.88
723.077	0.88
723.829	-0.12
724.581	0.88
725.333	-0.12
726.085	0.88
726.836	0.88
727.588	1.88
728.34	1.88
729.091	1.88
729.843	0.88
730.594	1.88
731.346	2.88
732.097	2.88
732.848	3.88
733.599	4.88
734.35	0.88
735.101	-0.12
735.852	1.88
736.603	0.88
737.354	2.88
738.104	1.88
738.855	-0.12
739.605	1.88
740.356	4.88
741.106	2.88
741.856	1.88
742.607	1.88
743.357	3.88
744.107	3.88
744.857	2.88
745.607	0.88
746.357	0.88
747.106	1.88
747.856	3.88
748.606	3.88
749.355	1.88
750.105	1.88
750.854	4.88
751.603	1.88
752.353	1.88
753.102	1.88
753.851	2.88
754.6	3.88
755.349	3.88
756.098	2.88
756.847	1.88
757.595	1.88
758.344	3.88
759.093	2.88
759.841	4.88
760.589	2.88
761.338	2.88
762.086	2.88
762.834	2.88
763.582	2.88
764.331	1.88
765.079	4.88
765.826	2.88
766.574	2.88
767.322	1.88
768.07	4.88
768.817	2.88
769.565	4.88
770.312	1.88
771.06	1.88
771.807	7.88
772.554	3.88
773.302	2.88
774.049	4.88
774.796	2.88
775.543	3.88
776.29	1.88
777.036	5.88
777.783	1.88
778.53	4.88
779.276	6.88
780.023	3.88
780.769	4.88
781.516	3.88
782.262	5.88
783.008	4.88
783.754	5.88
784.5	3.88
785.246	6.88
785.992	4.88
786.738	1.88
787.484	5.88
788.23	6.88
788.975	3.88
789.721	4.88
790.466	2.88
791.212	4.88
791.957	4.88
792.702	3.88
793.447	2.88
794.193	6.88
794.938	7.88
795.683	4.88
796.427	6.88
797.172	5.88
797.917	3.88
798.662	4.88
799.406	4.88
800.151	4.88
800.895	3.88
801.64	4.88
802.384	0.88
803.128	1.88
803.872	3.88
804.616	4.88
805.36	1.88
806.104	1.88
806.848	4.88
807.592	2.88
808.336	1.88
809.079	7.88
809.823	2.88
810.566	2.88
811.31	2.88
812.053	1.88
812.796	3.88
813.539	4.88
814.283	1.88
815.026	4.88
815.769	2.88
816.511	2.88
817.254	3.88
817.997	2.88
818.74	0.88
819.482	4.88
820.225	2.88
820.967	1.88
821.71	2.88
822.452	2.88
823.194	3.88
823.936	3.88
824.678	2.88
825.42	1.88
826.162	3.88
826.904	3.88
827.646	2.88
828.388	1.88
829.129	1.88
829.871	3.88
830.612	2.88
831.354	2.88
832.095	2.88
832.836	1.88
833.577	2.88
834.319	2.88
835.06	1.88
835.801	1.88
836.542	0.88
837.282	0.88
838.023	-0.12
838.764	1.88
839.504	2.88
840.245	1.88
840.985	0.88
841.726	2.88
842.466	1.88
843.206	1.88
843.946	3.88
844.687	-0.12
845.427	2.88
846.166	1.88
846.906	0.88
847.646	3.88
848.386	1.88
849.125	-0.12
849.865	1.88
850.605	-0.12
851.344	1.88
852.083	2.88
852.823	-2.12
853.562	1.88
854.301	0.88
855.04	0.88
855.779	3.88
856.518	1.88
857.257	0.88
857.995	0.88
858.734	1.88
859.473	0.88
860.211	-0.12
860.95	1.88
861.688	-0.12
862.426	2.88
863.165	-0.12
863.903	-0.12
864.641	-0.12
865.379	1.88
866.117	1.88
866.855	-0.12
867.593	-0.12
868.33	-1.12
869.068	-0.12
869.806	-0.12
870.543	0.88
871.28	0.88
872.018	-1.12
872.755	-0.12
873.492	0.88
874.229	1.88
874.967	1.88
875.703	-0.12
876.44	1.88
877.177	0.88
877.914	0.88
878.651	-0.12
879.387	0.88
880.124	0.88
880.86	-0.12
881.597	0.88
882.333	-2.12
883.069	0.88
883.806	2.88
884.542	1.88
885.278	-0.12
886.014	0.88
886.749	0.88
887.485	0.88
888.221	0.88
888.957	0.88
889.692	0.88
890.428	-0.12
891.163	0.88
891.899	-0.12
892.634	0.88
893.369	1.88
894.104	0.88
894.839	0.88
895.574	-0.12
896.309	1.88
897.044	0.88
897.779	-1.12
898.514	3.88
899.248	1.88
899.983	-0.12
900.717	0.88
901.452	-1.12
902.186	0.88
902.92	-2.12
903.654	0.88
904.389	-2.12
905.123	-0.12
905.857	-0.12
906.59	-1.12
907.324	0.88
908.058	-1.12
908.792	-1.12
909.525	-1.12
910.259	-0.12
910.992	-2.12
911.726	1.88
912.459	-0.12
913.192	-0.12
913.925	0.88
914.658	-0.12
915.391	-2.12
916.124	-1.12
916.857	-0.12
917.59	-1.12
918.323	1.88
919.055	-0.12
919.788	-1.12
920.521	0.88
921.253	0.88
921.985	-0.12
922.718	1.88
923.45	-2.12
924.182	0.88
924.914	-0.12
925.646	-1.12
926.378	0.88
927.11	-1.12
927.841	-0.12
928.573	-0.12
929.305	-2.12
930.036	-1.12
930.768	-0.12
931.499	-0.12
932.23	-1.12
932.962	2.88
933.693	-2.12
934.424	1.88
935.155	1.88
935.886	-1.12
936.617	-0.12
937.348	-1.12
938.078	0.88
938.809	-2.12
939.54	-2.12
940.27	0.88
941.001	-2.12
941.731	0.88
942.461	-2.12
943.191	1.88
943.922	-2.12
944.652	0.88
945.382	1.88
946.112	-1.12
946.841	1.88
947.571	-3.12
948.301	-0.12
949.031	-2.12
949.76	1.88
950.49	-1.12
951.219	-2.12
951.948	-1.12
952.678	-0.12
953.407	-0.12
954.136	0.88
954.865	0.88
955.594	-0.12
956.323	-2.12
957.052	-2.12
957.78	-0.12
958.509	-1.12
959.238	-0.12
959.966	0.88
960.695	0.88
961.423	-1.12
962.151	0.88
962.88	0.88
963.608	-0.12
964.336	-0.12
965.064	0.88
965.792	-0.12
966.52	0.88
967.247	0.88
967.975	0.88
968.703	1.88
969.43	-2.12
970.158	-0.12
970.885	-1.12
971.613	-2.12
972.34	-1.12
973.067	-2.12
973.794	0.88
974.521	-2.12
975.248	0.88
975.975	-0.12
976.702	-0.12
977.429	-0.12
978.156	0.88
978.882	0.88
979.609	-0.12
980.335	0.88
981.062	1.88
981.788	-0.12
982.514	1.88
983.24	-1.12
983.967	-0.12
984.693	-1.12
985.419	0.88
986.144	-1.12
986.87	-0.12
987.596	0.88
988.322	-2.12
989.047	0.88
989.773	-2.12
990.498	-2.12
991.224	-1.12
991.949	2.88
992.674	0.88
993.399	0.88
994.124	-0.12
994.849	-1.12
995.574	2.88
996.299	-2.12
997.024	-1.12
997.749	-1.12
998.473	0.88
999.198	-0.12
999.922	-0.12
1000.647	1.88
1001.371	1.88
1002.095	-0.12
1002.82	-2.12
1003.544	-2.12
1004.268	0.88
1004.992	-1.12
1005.716	-1.12
1006.439	-2.12
1007.163	-0.12
1007.887	0.88
1008.611	-0.12
1009.334	-1.12
1010.058	0.88
1010.781	-1.12
1011.504	1.88
1012.228	-1.12
1012.951	0.88
1013.674	1.88
1014.397	-1.12
1015.12	0.88
