节点500_145_QEPB04081__152__11-31-22-600.txt的数据

Date: Wed Nov 12 11:31:22 CST 2025
User: PC
Spectrometer: QEPB0408
触发模式: 0
积分时间 (秒): 1.000000E-2
Scans to average: 1
启用暗噪声校正: true
启用非线性校正: false
滑动平均宽度: 0
X轴模式: Wavelengths
Number of Pixels in Spectrum: 1044
>>>>>Begin Spectral Data<<<<<
220.843	0.88
221.644	0.88
222.444	-0.12
223.244	-1.12
224.045	0.88
224.845	0.88
225.645	0.88
226.445	-0.12
227.245	0.88
228.045	0.88
228.845	0.88
229.645	1.88
230.444	-0.12
231.244	1.88
232.043	-2.12
232.843	-0.12
233.642	1.88
234.442	-0.12
235.241	0.88
236.04	-0.12
236.839	2.88
237.638	2.88
238.437	0.88
239.236	0.88
240.035	-0.12
240.833	-0.12
241.632	0.88
242.43	1.88
243.229	2.88
244.027	2.88
244.826	1.88
245.624	1.88
246.422	2.88
247.22	0.88
248.018	1.88
248.816	2.88
249.614	1.88
250.412	2.88
251.21	0.88
252.007	1.88
252.805	-0.12
253.602	1.88
254.4	2.88
255.197	1.88
255.994	2.88
256.791	3.88
257.589	2.88
258.386	2.88
259.183	3.88
259.979	5.88
260.776	3.88
261.573	3.88
262.37	3.88
263.166	7.88
263.963	4.88
264.759	6.88
265.556	6.88
266.352	4.88
267.148	6.88
267.944	5.88
268.74	6.88
269.536	6.88
270.332	6.88
271.128	6.88
271.924	5.88
272.719	5.88
273.515	6.88
274.311	9.88
275.106	9.88
275.901	8.88
276.697	6.88
277.492	6.88
278.287	9.88
279.082	8.88
279.877	7.88
280.672	6.88
281.467	11.88
282.262	9.88
283.056	8.88
283.851	11.88
284.646	11.88
285.44	11.88
286.234	11.88
287.029	11.88
287.823	12.88
288.617	12.88
289.411	10.88
290.205	11.88
290.999	12.88
291.793	10.88
292.587	7.88
293.381	9.88
294.174	9.88
294.968	8.88
295.761	8.88
296.555	9.88
297.348	9.88
298.141	6.88
298.935	7.88
299.728	8.88
300.521	8.88
301.314	7.88
302.107	8.88
302.899	8.88
303.692	8.88
304.485	7.88
305.277	8.88
306.07	8.88
306.862	5.88
307.655	8.88
308.447	7.88
309.239	4.88
310.031	7.88
310.823	5.88
311.615	6.88
312.407	6.88
313.199	3.88
313.991	6.88
314.783	6.88
315.574	5.88
316.366	4.88
317.157	7.88
317.949	5.88
318.74	3.88
319.531	5.88
320.322	2.88
321.113	5.88
321.904	4.88
322.695	4.88
323.486	3.88
324.277	3.88
325.068	3.88
325.858	3.88
326.649	3.88
327.439	4.88
328.23	4.88
329.02	3.88
329.81	4.88
330.6	3.88
331.391	1.88
332.181	3.88
332.971	4.88
333.76	4.88
334.55	4.88
335.34	1.88
336.13	4.88
336.919	1.88
337.709	1.88
338.498	3.88
339.287	2.88
340.077	2.88
340.866	7.88
341.655	5.88
342.444	0.88
343.233	2.88
344.022	2.88
344.811	3.88
345.6	3.88
346.388	3.88
347.177	2.88
347.965	2.88
348.754	2.88
349.542	0.88
350.33	1.88
351.119	1.88
351.907	1.88
352.695	2.88
353.483	1.88
354.271	2.88
355.059	2.88
355.846	2.88
356.634	0.88
357.422	2.88
358.209	1.88
358.997	1.88
359.784	1.88
360.571	0.88
361.359	2.88
362.146	1.88
362.933	1.88
363.72	2.88
364.507	4.88
365.294	0.88
366.081	3.88
366.867	1.88
367.654	0.88
368.44	1.88
369.227	2.88
370.013	0.88
370.8	2.88
371.586	1.88
372.372	2.88
373.158	2.88
373.944	1.88
374.73	0.88
375.516	2.88
376.302	1.88
377.088	4.88
377.873	2.88
378.659	2.88
379.445	0.88
380.23	2.88
381.015	2.88
381.801	1.88
382.586	1.88
383.371	2.88
384.156	3.88
384.941	1.88
385.726	2.88
386.511	1.88
387.296	1.88
388.08	1.88
388.865	1.88
389.649	3.88
390.434	3.88
391.218	2.88
392.003	3.88
392.787	2.88
393.571	1.88
394.355	0.88
395.139	2.88
395.923	3.88
396.707	2.88
397.491	1.88
398.274	3.88
399.058	3.88
399.842	1.88
400.625	3.88
401.408	2.88
402.192	1.88
402.975	5.88
403.758	0.88
404.541	3.88
405.324	4.88
406.107	2.88
406.89	4.88
407.673	2.88
408.456	3.88
409.238	6.88
410.021	1.88
410.803	3.88
411.586	4.88
412.368	1.88
413.151	3.88
413.933	3.88
414.715	1.88
415.497	5.88
416.279	4.88
417.061	2.88
417.843	4.88
418.624	6.88
419.406	4.88
420.188	3.88
420.969	2.88
421.751	5.88
422.532	5.88
423.313	6.88
424.095	4.88
424.876	4.88
425.657	5.88
426.438	4.88
427.219	6.88
428	6.88
428.78	5.88
429.561	5.88
430.342	7.88
431.122	6.88
431.903	9.88
432.683	8.88
433.464	8.88
434.244	6.88
435.024	7.88
435.804	10.88
436.584	8.88
437.364	8.88
438.144	10.88
438.924	9.88
439.704	10.88
440.483	11.88
441.263	13.88
442.042	12.88
442.822	11.88
443.601	13.88
444.38	12.88
445.16	13.88
445.939	11.88
446.718	17.88
447.497	16.88
448.276	17.88
449.054	21.88
449.833	22.88
450.612	22.88
451.391	24.88
452.169	27.88
452.948	28.88
453.726	33.88
454.504	36.88
455.282	39.88
456.061	41.88
456.839	47.88
457.617	55.88
458.395	54.88
459.172	66.88
459.95	71.88
460.728	76.88
461.506	88.88
462.283	95.88
463.061	103.88
463.838	118.88
464.615	133.88
465.393	141.88
466.17	160.88
466.947	188.88
467.724	206.88
468.501	235.88
469.278	254.88
470.055	281.88
470.831	316.88
471.608	352.88
472.385	394.88
473.161	448.88
473.938	499.88
474.714	552.88
475.49	606.88
476.266	673.88
477.043	753.88
477.819	832.88
478.595	937.88
479.371	1013.88
480.146	1135.88
480.922	1255.88
481.698	1403.88
482.473	1545.88
483.249	1729.88
484.024	1904.88
484.8	2107.88
485.575	2320.88
486.35	2582.88
487.126	2863.88
487.901	3144.88
488.676	3464.88
489.451	3832.88
490.225	4273.88
491	4690.88
491.775	5145.88
492.55	5677.88
493.324	6261.88
494.099	6819.88
494.873	7504.88
495.647	8199.88
496.422	8885.88
497.196	9627.88
497.97	10413.88
498.744	11173.88
499.518	11981.88
500.292	12802.88
501.066	13535.88
501.839	14279.88
502.613	14988.88
503.387	15568.88
504.16	16106.88
504.934	16542.88
505.707	16843.88
506.48	17060.88
507.253	17208.88
508.027	17168.88
508.8	17057.88
509.573	16791.88
510.346	16490.88
511.118	16038.88
511.891	15589.88
512.664	15026.88
513.437	14484.88
514.209	13888.88
514.982	13301.88
515.754	12727.88
516.526	12147.88
517.298	11584.88
518.071	11035.88
518.843	10545.88
519.615	10091.88
520.387	9691.88
521.159	9300.88
521.93	8898.88
522.702	8605.88
523.474	8250.88
524.245	7939.88
525.017	7602.88
525.788	7298.88
526.56	7003.88
527.331	6703.88
528.102	6403.88
528.873	6123.88
529.644	5822.88
530.415	5545.88
531.186	5297.88
531.957	5005.88
532.728	4741.88
533.498	4481.88
534.269	4218.88
535.039	3997.88
535.81	3757.88
536.58	3532.88
537.351	3341.88
538.121	3160.88
538.891	2979.88
539.661	2832.88
540.431	2673.88
541.201	2540.88
541.971	2395.88
542.741	2272.88
543.51	2154.88
544.28	2042.88
545.05	1930.88
545.819	1848.88
546.588	1762.88
547.358	1667.88
548.127	1580.88
548.896	1515.88
549.665	1432.88
550.434	1364.88
551.203	1290.88
551.972	1208.88
552.741	1160.88
553.51	1096.88
554.278	1035.88
555.047	971.88
555.815	916.88
556.584	860.88
557.352	806.88
558.121	765.88
558.889	720.88
559.657	684.88
560.425	643.88
561.193	607.88
561.961	562.88
562.729	533.88
563.496	506.88
564.264	472.88
565.032	451.88
565.799	424.88
566.567	403.88
567.334	379.88
568.101	357.88
568.869	341.88
569.636	320.88
570.403	307.88
571.17	285.88
571.937	268.88
572.704	247.88
573.471	239.88
574.237	228.88
575.004	203.88
575.771	201.88
576.537	187.88
577.303	173.88
578.07	165.88
578.836	152.88
579.602	146.88
580.368	142.88
581.134	132.88
581.9	123.88
582.666	122.88
583.432	112.88
584.198	102.88
584.964	97.88
585.729	92.88
586.495	89.88
587.26	84.88
588.025	77.88
588.791	75.88
589.556	64.88
590.321	69.88
591.086	62.88
591.851	59.88
592.616	57.88
593.381	55.88
594.146	53.88
594.911	48.88
595.675	45.88
596.44	46.88
597.204	42.88
597.969	43.88
598.733	37.88
599.497	38.88
600.261	35.88
601.025	30.88
601.79	27.88
602.553	29.88
603.317	27.88
604.081	24.88
604.845	28.88
605.609	23.88
606.372	23.88
607.136	22.88
607.899	21.88
608.662	22.88
609.426	20.88
610.189	21.88
610.952	20.88
611.715	18.88
612.478	16.88
613.241	15.88
614.004	17.88
614.767	14.88
615.529	17.88
616.292	12.88
617.055	13.88
617.817	13.88
618.579	11.88
619.342	14.88
620.104	9.88
620.866	8.88
621.628	10.88
622.39	9.88
623.152	10.88
623.914	8.88
624.676	10.88
625.438	6.88
626.199	9.88
626.961	8.88
627.722	7.88
628.484	8.88
629.245	7.88
630.006	6.88
630.768	7.88
631.529	6.88
632.29	3.88
633.051	6.88
633.812	6.88
634.573	5.88
635.333	6.88
636.094	3.88
636.855	5.88
637.615	5.88
638.376	6.88
639.136	4.88
639.896	3.88
640.657	6.88
641.417	5.88
642.177	3.88
642.937	4.88
643.697	2.88
644.457	4.88
645.216	4.88
645.976	5.88
646.736	3.88
647.495	3.88
648.255	4.88
649.014	5.88
649.774	4.88
650.533	4.88
651.292	6.88
652.051	3.88
652.81	2.88
653.569	2.88
654.328	3.88
655.087	1.88
655.846	0.88
656.604	2.88
657.363	3.88
658.121	3.88
658.88	3.88
659.638	1.88
660.397	3.88
661.155	2.88
661.913	2.88
662.671	1.88
663.429	0.88
664.187	4.88
664.945	3.88
665.703	4.88
666.46	0.88
667.218	2.88
667.976	2.88
668.733	1.88
669.49	0.88
670.248	2.88
671.005	3.88
671.762	-0.12
672.519	3.88
673.276	3.88
674.033	2.88
674.79	2.88
675.547	0.88
676.304	1.88
677.06	0.88
677.817	0.88
678.574	0.88
679.33	1.88
680.086	1.88
680.843	2.88
681.599	2.88
682.355	0.88
683.111	1.88
683.867	1.88
684.623	1.88
685.379	2.88
686.135	2.88
686.89	0.88
687.646	0.88
688.402	1.88
689.157	-0.12
689.912	1.88
690.668	0.88
691.423	-1.12
692.178	2.88
692.933	0.88
693.688	1.88
694.443	1.88
695.198	0.88
695.953	1.88
696.708	0.88
697.462	4.88
698.217	1.88
698.972	1.88
699.726	1.88
700.48	1.88
701.235	1.88
701.989	-0.12
702.743	4.88
703.497	1.88
704.251	2.88
705.005	1.88
705.759	2.88
706.513	3.88
707.266	1.88
708.02	4.88
708.774	0.88
709.527	2.88
710.28	2.88
711.034	0.88
711.787	2.88
712.54	0.88
713.293	0.88
714.046	1.88
714.799	1.88
715.552	0.88
716.305	0.88
717.058	1.88
717.81	-1.12
718.563	1.88
719.315	3.88
720.068	3.88
720.82	4.88
721.573	-0.12
722.325	1.88
723.077	2.88
723.829	0.88
724.581	1.88
725.333	0.88
726.085	3.88
726.836	0.88
727.588	0.88
728.34	1.88
729.091	2.88
729.843	0.88
730.594	0.88
731.346	0.88
732.097	2.88
732.848	2.88
733.599	2.88
734.35	2.88
735.101	-2.12
735.852	0.88
736.603	0.88
737.354	1.88
738.104	1.88
738.855	0.88
739.605	0.88
740.356	2.88
741.106	-0.12
741.856	2.88
742.607	0.88
743.357	0.88
744.107	1.88
744.857	1.88
745.607	0.88
746.357	-0.12
747.106	3.88
747.856	1.88
748.606	1.88
749.355	2.88
750.105	0.88
750.854	2.88
751.603	1.88
752.353	2.88
753.102	1.88
753.851	1.88
754.6	3.88
755.349	1.88
756.098	0.88
756.847	0.88
757.595	3.88
758.344	3.88
759.093	2.88
759.841	2.88
760.589	2.88
761.338	1.88
762.086	3.88
762.834	4.88
763.582	2.88
764.331	2.88
765.079	2.88
765.826	0.88
766.574	3.88
767.322	2.88
768.07	1.88
768.817	4.88
769.565	3.88
770.312	2.88
771.06	3.88
771.807	3.88
772.554	2.88
773.302	3.88
774.049	2.88
774.796	4.88
775.543	5.88
776.29	2.88
777.036	5.88
777.783	6.88
778.53	3.88
779.276	6.88
780.023	4.88
780.769	2.88
781.516	5.88
782.262	5.88
783.008	4.88
783.754	2.88
784.5	2.88
785.246	4.88
785.992	4.88
786.738	4.88
787.484	7.88
788.23	3.88
788.975	3.88
789.721	4.88
790.466	4.88
791.212	4.88
791.957	4.88
792.702	5.88
793.447	4.88
794.193	3.88
794.938	5.88
795.683	2.88
796.427	3.88
797.172	3.88
797.917	5.88
798.662	3.88
799.406	4.88
800.151	3.88
800.895	3.88
801.64	5.88
802.384	1.88
803.128	5.88
803.872	4.88
804.616	3.88
805.36	5.88
806.104	2.88
806.848	1.88
807.592	4.88
808.336	4.88
809.079	4.88
809.823	2.88
810.566	2.88
811.31	4.88
812.053	1.88
812.796	0.88
813.539	5.88
814.283	0.88
815.026	4.88
815.769	1.88
816.511	2.88
817.254	3.88
817.997	4.88
818.74	4.88
819.482	2.88
820.225	4.88
820.967	4.88
821.71	1.88
822.452	2.88
823.194	1.88
823.936	2.88
824.678	-0.12
825.42	1.88
826.162	2.88
826.904	2.88
827.646	1.88
828.388	0.88
829.129	2.88
829.871	2.88
830.612	2.88
831.354	1.88
832.095	-0.12
832.836	1.88
833.577	0.88
834.319	3.88
835.06	0.88
835.801	1.88
836.542	1.88
837.282	1.88
838.023	-0.12
838.764	2.88
839.504	2.88
840.245	1.88
840.985	-0.12
841.726	0.88
842.466	-0.12
843.206	1.88
843.946	0.88
844.687	2.88
845.427	3.88
846.166	1.88
846.906	1.88
847.646	3.88
848.386	1.88
849.125	-0.12
849.865	1.88
850.605	0.88
851.344	0.88
852.083	1.88
852.823	0.88
853.562	-1.12
854.301	1.88
855.04	1.88
855.779	1.88
856.518	1.88
857.257	2.88
857.995	1.88
858.734	1.88
859.473	0.88
860.211	1.88
860.95	3.88
861.688	0.88
862.426	-1.12
863.165	-1.12
863.903	0.88
864.641	-0.12
865.379	0.88
866.117	1.88
866.855	-0.12
867.593	0.88
868.33	-0.12
869.068	0.88
869.806	-1.12
870.543	1.88
871.28	-0.12
872.018	1.88
872.755	0.88
873.492	1.88
874.229	2.88
874.967	0.88
875.703	-0.12
876.44	0.88
877.177	-0.12
877.914	-0.12
878.651	-2.12
879.387	-0.12
880.124	-1.12
880.86	0.88
881.597	-0.12
882.333	-1.12
883.069	0.88
883.806	-1.12
884.542	1.88
885.278	0.88
886.014	-0.12
886.749	1.88
887.485	0.88
888.221	0.88
888.957	0.88
889.692	-1.12
890.428	0.88
891.163	0.88
891.899	0.88
892.634	-1.12
893.369	-0.12
894.104	-2.12
894.839	0.88
895.574	0.88
896.309	0.88
897.044	-0.12
897.779	-1.12
898.514	1.88
899.248	0.88
899.983	-1.12
900.717	0.88
901.452	-0.12
902.186	0.88
902.92	-0.12
903.654	0.88
904.389	1.88
905.123	-0.12
905.857	3.88
906.59	-2.12
907.324	0.88
908.058	0.88
908.792	0.88
909.525	0.88
910.259	0.88
910.992	0.88
911.726	-0.12
912.459	-0.12
913.192	-1.12
913.925	-0.12
914.658	0.88
915.391	0.88
916.124	0.88
916.857	-0.12
917.59	-1.12
918.323	0.88
919.055	0.88
919.788	-0.12
920.521	-1.12
921.253	0.88
921.985	-1.12
922.718	-0.12
923.45	-1.12
924.182	-0.12
924.914	-0.12
925.646	-0.12
926.378	-1.12
927.11	0.88
927.841	0.88
928.573	0.88
929.305	0.88
930.036	-0.12
930.768	-0.12
931.499	0.88
932.23	-1.12
932.962	0.88
933.693	-0.12
934.424	1.88
935.155	0.88
935.886	-0.12
936.617	0.88
937.348	-1.12
938.078	1.88
938.809	1.88
939.54	0.88
940.27	-0.12
941.001	-2.12
941.731	1.88
942.461	-0.12
943.191	1.88
943.922	0.88
944.652	-2.12
945.382	-1.12
946.112	-1.12
946.841	0.88
947.571	-0.12
948.301	-0.12
949.031	0.88
949.76	-1.12
950.49	-0.12
951.219	-1.12
951.948	2.88
952.678	-0.12
953.407	0.88
954.136	-1.12
954.865	-0.12
955.594	0.88
956.323	1.88
957.052	0.88
957.78	-0.12
958.509	-0.12
959.238	-0.12
959.966	-2.12
960.695	1.88
961.423	-0.12
962.151	0.88
962.88	-0.12
963.608	0.88
964.336	0.88
965.064	-0.12
965.792	-0.12
966.52	0.88
967.247	1.88
967.975	-0.12
968.703	-1.12
969.43	2.88
970.158	-0.12
970.885	-1.12
971.613	-2.12
972.34	1.88
973.067	-1.12
973.794	-2.12
974.521	1.88
975.248	0.88
975.975	0.88
976.702	-1.12
977.429	-1.12
978.156	1.88
978.882	-2.12
979.609	-1.12
980.335	-2.12
981.062	-0.12
981.788	1.88
982.514	0.88
983.24	0.88
983.967	-1.12
984.693	-0.12
985.419	-1.12
986.144	-0.12
986.87	0.88
987.596	-2.12
988.322	-0.12
989.047	-1.12
989.773	-0.12
990.498	0.88
991.224	-0.12
991.949	-2.12
992.674	0.88
993.399	-0.12
994.124	-2.12
994.849	0.88
995.574	0.88
996.299	-1.12
997.024	-2.12
997.749	-0.12
998.473	-0.12
999.198	0.88
999.922	1.88
1000.647	-2.12
1001.371	3.88
1002.095	-1.12
1002.82	-0.12
1003.544	-2.12
1004.268	-1.12
1004.992	-1.12
1005.716	-1.12
1006.439	-3.12
1007.163	0.88
1007.887	-2.12
1008.611	-0.12
1009.334	-1.12
1010.058	0.88
1010.781	-1.12
1011.504	-0.12
1012.228	-0.12
1012.951	1.88
1013.674	-0.12
1014.397	-2.12
1015.12	-0.12
