节点500_145_QEPB04081__408__11-35-29-546.txt的数据

Date: Wed Nov 12 11:35:29 CST 2025
User: PC
Spectrometer: QEPB0408
触发模式: 0
积分时间 (秒): 1.000000E-2
Scans to average: 1
启用暗噪声校正: true
启用非线性校正: false
滑动平均宽度: 0
X轴模式: Wavelengths
Number of Pixels in Spectrum: 1044
>>>>>Begin Spectral Data<<<<<
220.843	0
221.644	0
222.444	0
223.244	1
224.045	1
224.845	3
225.645	2
226.445	1
227.245	1
228.045	2
228.845	2
229.645	1
230.444	1
231.244	2
232.043	2
232.843	2
233.642	1
234.442	3
235.241	1
236.04	0
236.839	0
237.638	2
238.437	2
239.236	3
240.035	3
240.833	3
241.632	2
242.43	0
243.229	2
244.027	3
244.826	1
245.624	2
246.422	2
247.22	2
248.018	1
248.816	3
249.614	6
250.412	2
251.21	4
252.007	4
252.805	4
253.602	1
254.4	4
255.197	2
255.994	3
256.791	3
257.589	4
258.386	5
259.183	6
259.979	2
260.776	4
261.573	5
262.37	6
263.166	5
263.963	7
264.759	6
265.556	5
266.352	6
267.148	6
267.944	11
268.74	7
269.536	7
270.332	10
271.128	8
271.924	9
272.719	7
273.515	9
274.311	10
275.106	8
275.901	10
276.697	8
277.492	8
278.287	8
279.082	9
279.877	8
280.672	8
281.467	10
282.262	11
283.056	10
283.851	11
284.646	10
285.44	10
286.234	12
287.029	12
287.823	12
288.617	11
289.411	12
290.205	10
290.999	10
291.793	13
292.587	11
293.381	9
294.174	10
294.968	7
295.761	12
296.555	9
297.348	11
298.141	15
298.935	10
299.728	7
300.521	9
301.314	11
302.107	8
302.899	9
303.692	8
304.485	7
305.277	12
306.07	11
306.862	9
307.655	8
308.447	9
309.239	10
310.031	10
310.823	9
311.615	8
312.407	9
313.199	7
313.991	6
314.783	5
315.574	11
316.366	6
317.157	6
317.949	8
318.74	6
319.531	6
320.322	6
321.113	5
321.904	6
322.695	6
323.486	5
324.277	6
325.068	3
325.858	6
326.649	5
327.439	5
328.23	3
329.02	5
329.81	6
330.6	5
331.391	2
332.181	3
332.971	4
333.76	3
334.55	8
335.34	5
336.13	4
336.919	4
337.709	6
338.498	5
339.287	2
340.077	5
340.866	3
341.655	3
342.444	1
343.233	3
344.022	5
344.811	4
345.6	4
346.388	4
347.177	5
347.965	6
348.754	3
349.542	5
350.33	5
351.119	4
351.907	4
352.695	4
353.483	6
354.271	2
355.059	4
355.846	5
356.634	3
357.422	3
358.209	2
358.997	2
359.784	2
360.571	7
361.359	4
362.146	5
362.933	1
363.72	3
364.507	2
365.294	3
366.081	4
366.867	3
367.654	5
368.44	4
369.227	3
370.013	3
370.8	2
371.586	4
372.372	6
373.158	3
373.944	4
374.73	4
375.516	3
376.302	2
377.088	3
377.873	4
378.659	4
379.445	3
380.23	4
381.015	3
381.801	1
382.586	4
383.371	2
384.156	4
384.941	5
385.726	4
386.511	4
387.296	6
388.08	6
388.865	5
389.649	5
390.434	2
391.218	4
392.003	3
392.787	3
393.571	3
394.355	4
395.139	4
395.923	5
396.707	4
397.491	4
398.274	4
399.058	2
399.842	5
400.625	5
401.408	2
402.192	5
402.975	4
403.758	4
404.541	5
405.324	2
406.107	3
406.89	3
407.673	5
408.456	7
409.238	3
410.021	4
410.803	6
411.586	4
412.368	5
413.151	5
413.933	7
414.715	5
415.497	7
416.279	4
417.061	4
417.843	5
418.624	4
419.406	6
420.188	6
420.969	6
421.751	6
422.532	8
423.313	6
424.095	5
424.876	7
425.657	6
426.438	6
427.219	5
428	6
428.78	6
429.561	6
430.342	7
431.122	6
431.903	8
432.683	10
433.464	8
434.244	9
435.024	10
435.804	11
436.584	10
437.364	14
438.144	8
438.924	10
439.704	13
440.483	12
441.263	14
442.042	12
442.822	14
443.601	15
444.38	15
445.16	18
445.939	18
446.718	18
447.497	21
448.276	22
449.054	26
449.833	22
450.612	26
451.391	31
452.169	33
452.948	31
453.726	36
454.504	41
455.282	43
456.061	50
456.839	49
457.617	59
458.395	65
459.172	70
459.95	74
460.728	88
461.506	100
462.283	110
463.061	117
463.838	133
464.615	149
465.393	162
466.17	182
466.947	203
467.724	226
468.501	255
469.278	282
470.055	314
470.831	347
471.608	377
472.385	427
473.161	471
473.938	527
474.714	581
475.49	638
476.266	707
477.043	781
477.819	856
478.595	955
479.371	1053
480.146	1155
480.922	1273
481.698	1403
482.473	1551
483.249	1708
484.024	1867
484.8	2061
485.575	2264
486.35	2491
487.126	2717
487.901	2988
488.676	3301
489.451	3602
490.225	3940
491	4324
491.775	4742
492.55	5196
493.324	5672
494.099	6205
494.873	6762
495.647	7319
496.422	7945
497.196	8632
497.97	9304
498.744	10007
499.518	10710
500.292	11397
501.066	12099
501.839	12775
502.613	13378
503.387	14057
504.16	14603
504.934	15050
505.707	15428
506.48	15751
507.253	15939
508.027	16053
508.8	16094
509.573	15959
510.346	15787
511.118	15460
511.891	15177
512.664	14753
513.437	14283
514.209	13806
514.982	13272
515.754	12753
516.526	12253
517.298	11731
518.071	11231
518.843	10749
519.615	10265
520.387	9832
521.159	9459
521.93	9095
522.702	8718
523.474	8355
524.245	8061
525.017	7691
525.788	7404
526.56	7068
527.331	6837
528.102	6556
528.873	6241
529.644	5989
530.415	5725
531.186	5453
531.957	5170
532.728	4908
533.498	4648
534.269	4420
535.039	4179
535.81	3934
536.58	3740
537.351	3543
538.121	3329
538.891	3147
539.661	2965
540.431	2812
541.201	2665
541.971	2516
542.741	2383
543.51	2274
544.28	2169
545.05	2043
545.819	1950
546.588	1832
547.358	1760
548.127	1664
548.896	1598
549.665	1490
550.434	1421
551.203	1353
551.972	1271
552.741	1220
553.51	1163
554.278	1091
555.047	1028
555.815	981
556.584	915
557.352	870
558.121	827
558.889	770
559.657	719
560.425	697
561.193	654
561.961	620
562.729	580
563.496	544
564.264	516
565.032	489
565.799	454
566.567	438
567.334	409
568.101	378
568.869	358
569.636	340
570.403	322
571.17	313
571.937	288
572.704	276
573.471	261
574.237	244
575.004	229
575.771	209
576.537	196
577.303	192
578.07	178
578.836	166
579.602	155
580.368	155
581.134	146
581.9	133
582.666	132
583.432	121
584.198	110
584.964	108
585.729	103
586.495	102
587.26	89
588.025	86
588.791	82
589.556	78
590.321	74
591.086	73
591.851	64
592.616	60
593.381	60
594.146	58
594.911	57
595.675	53
596.44	46
597.204	46
597.969	44
598.733	39
599.497	40
600.261	39
601.025	38
601.79	36
602.553	34
603.317	33
604.081	30
604.845	28
605.609	27
606.372	26
607.136	30
607.899	24
608.662	24
609.426	22
610.189	23
610.952	20
611.715	21
612.478	18
613.241	17
614.004	16
614.767	18
615.529	15
616.292	15
617.055	15
617.817	15
618.579	14
619.342	15
620.104	12
620.866	14
621.628	12
622.39	12
623.152	12
623.914	12
624.676	12
625.438	11
626.199	10
626.961	9
627.722	7
628.484	9
629.245	9
630.006	9
630.768	8
631.529	8
632.29	10
633.051	9
633.812	7
634.573	9
635.333	9
636.094	5
636.855	8
637.615	6
638.376	7
639.136	7
639.896	8
640.657	6
641.417	7
642.177	6
642.937	4
643.697	6
644.457	6
645.216	6
645.976	4
646.736	4
647.495	5
648.255	6
649.014	7
649.774	3
650.533	3
651.292	6
652.051	4
652.81	5
653.569	6
654.328	5
655.087	5
655.846	3
656.604	4
657.363	3
658.121	5
658.88	3
659.638	4
660.397	6
661.155	4
661.913	5
662.671	4
663.429	5
664.187	3
664.945	5
665.703	5
666.46	4
667.218	3
667.976	4
668.733	3
669.49	5
670.248	4
671.005	2
671.762	5
672.519	3
673.276	4
674.033	4
674.79	3
675.547	3
676.304	4
677.06	4
677.817	2
678.574	4
679.33	2
680.086	5
680.843	0
681.599	4
682.355	1
683.111	3
683.867	3
684.623	5
685.379	0
686.135	2
686.89	1
687.646	2
688.402	2
689.157	4
689.912	2
690.668	1
691.423	5
692.178	2
692.933	4
693.688	4
694.443	2
695.198	1
695.953	1
696.708	2
697.462	3
698.217	2
698.972	2
699.726	1
700.48	4
701.235	3
701.989	2
702.743	2
703.497	2
704.251	3
705.005	2
705.759	3
706.513	3
707.266	5
708.02	4
708.774	3
709.527	3
710.28	2
711.034	5
711.787	3
712.54	2
713.293	3
714.046	3
714.799	2
715.552	1
716.305	2
717.058	4
717.81	2
718.563	3
719.315	2
720.068	2
720.82	2
721.573	4
722.325	3
723.077	3
723.829	2
724.581	2
725.333	4
726.085	2
726.836	4
727.588	2
728.34	3
729.091	4
729.843	2
730.594	2
731.346	3
732.097	1
732.848	5
733.599	3
734.35	3
735.101	3
735.852	3
736.603	2
737.354	4
738.104	5
738.855	3
739.605	1
740.356	4
741.106	4
741.856	2
742.607	2
743.357	4
744.107	1
744.857	4
745.607	2
746.357	4
747.106	0
747.856	3
748.606	3
749.355	4
750.105	4
750.854	2
751.603	4
752.353	3
753.102	3
753.851	3
754.6	3
755.349	3
756.098	2
756.847	3
757.595	4
758.344	6
759.093	2
759.841	1
760.589	5
761.338	1
762.086	2
762.834	4
763.582	6
764.331	3
765.079	3
765.826	4
766.574	4
767.322	6
768.07	2
768.817	3
769.565	5
770.312	6
771.06	4
771.807	2
772.554	5
773.302	5
774.049	5
774.796	4
775.543	4
776.29	6
777.036	3
777.783	5
778.53	6
779.276	7
780.023	6
780.769	6
781.516	5
782.262	4
783.008	8
783.754	6
784.5	5
785.246	3
785.992	5
786.738	4
787.484	3
788.23	6
788.975	5
789.721	5
790.466	7
791.212	7
791.957	8
792.702	6
793.447	4
794.193	5
794.938	4
795.683	5
796.427	3
797.172	6
797.917	6
798.662	5
799.406	6
800.151	5
800.895	5
801.64	5
802.384	5
803.128	7
803.872	4
804.616	8
805.36	6
806.104	6
806.848	4
807.592	4
808.336	4
809.079	6
809.823	6
810.566	2
811.31	4
812.053	6
812.796	6
813.539	2
814.283	5
815.026	3
815.769	4
816.511	6
817.254	4
817.997	3
818.74	4
819.482	3
820.225	4
820.967	5
821.71	4
822.452	3
823.194	5
823.936	4
824.678	5
825.42	6
826.162	3
826.904	2
827.646	3
828.388	3
829.129	3
829.871	5
830.612	4
831.354	3
832.095	5
832.836	2
833.577	6
834.319	2
835.06	1
835.801	3
836.542	0
837.282	5
838.023	2
838.764	4
839.504	3
840.245	3
840.985	4
841.726	2
842.466	3
843.206	2
843.946	4
844.687	1
845.427	2
846.166	3
846.906	2
847.646	1
848.386	3
849.125	5
849.865	5
850.605	3
851.344	5
852.083	2
852.823	5
853.562	4
854.301	1
855.04	2
855.779	2
856.518	3
857.257	2
857.995	2
858.734	1
859.473	2
860.211	2
860.95	3
861.688	2
862.426	1
863.165	4
863.903	3
864.641	0
865.379	1
866.117	0
866.855	3
867.593	-1
868.33	2
869.068	-1
869.806	1
870.543	2
871.28	1
872.018	4
872.755	2
873.492	2
874.229	2
874.967	3
875.703	3
876.44	1
877.177	2
877.914	1
878.651	1
879.387	0
880.124	1
880.86	2
881.597	1
882.333	1
883.069	2
883.806	2
884.542	1
885.278	1
886.014	2
886.749	2
887.485	3
888.221	-1
888.957	1
889.692	2
890.428	3
891.163	1
891.899	2
892.634	2
893.369	1
894.104	1
894.839	-1
895.574	2
896.309	1
897.044	2
897.779	2
898.514	1
899.248	3
899.983	0
900.717	1
901.452	3
902.186	2
902.92	3
903.654	2
904.389	2
905.123	2
905.857	-1
906.59	0
907.324	0
908.058	2
908.792	0
909.525	3
910.259	1
910.992	2
911.726	1
912.459	0
913.192	2
913.925	3
914.658	-1
915.391	-1
916.124	0
916.857	0
917.59	-1
918.323	0
919.055	2
919.788	2
920.521	-1
921.253	1
921.985	1
922.718	2
923.45	3
924.182	2
924.914	0
925.646	1
926.378	3
927.11	4
927.841	-1
928.573	2
929.305	-2
930.036	4
930.768	3
931.499	1
932.23	2
932.962	1
933.693	3
934.424	2
935.155	2
935.886	2
936.617	-2
937.348	1
938.078	2
938.809	0
939.54	2
940.27	2
941.001	-1
941.731	2
942.461	1
943.191	1
943.922	1
944.652	1
945.382	2
946.112	2
946.841	0
947.571	3
948.301	-1
949.031	1
949.76	0
950.49	3
951.219	3
951.948	1
952.678	1
953.407	-1
954.136	1
954.865	1
955.594	0
956.323	1
957.052	1
957.78	1
958.509	1
959.238	1
959.966	-1
960.695	2
961.423	1
962.151	2
962.88	2
963.608	0
964.336	2
965.064	1
965.792	1
966.52	-1
967.247	0
967.975	0
968.703	2
969.43	4
970.158	0
970.885	-1
971.613	1
972.34	0
973.067	1
973.794	0
974.521	1
975.248	1
975.975	2
976.702	2
977.429	1
978.156	1
978.882	0
979.609	2
980.335	0
981.062	-1
981.788	1
982.514	1
983.24	-1
983.967	0
984.693	1
985.419	1
986.144	0
986.87	0
987.596	0
988.322	2
989.047	1
989.773	2
990.498	0
991.224	3
991.949	0
992.674	3
993.399	1
994.124	1
994.849	1
995.574	2
996.299	1
997.024	2
997.749	-1
998.473	0
999.198	1
999.922	2
1000.647	0
1001.371	3
1002.095	-1
1002.82	-1
1003.544	1
1004.268	0
1004.992	-1
1005.716	-2
1006.439	-1
1007.163	1
1007.887	0
1008.611	2
1009.334	2
1010.058	3
1010.781	0
1011.504	2
1012.228	1
1012.951	-2
1013.674	0
1014.397	-1
1015.12	1
