节点500_145_QEPB04081__459__11-36-16-553.txt的数据

Date: Wed Nov 12 11:36:16 CST 2025
User: PC
Spectrometer: QEPB0408
触发模式: 0
积分时间 (秒): 1.000000E-2
Scans to average: 1
启用暗噪声校正: true
启用非线性校正: false
滑动平均宽度: 0
X轴模式: Wavelengths
Number of Pixels in Spectrum: 1044
>>>>>Begin Spectral Data<<<<<
220.843	-0.62
221.644	0.38
222.444	0.38
223.244	-0.62
224.045	0.38
224.845	0.38
225.645	-0.62
226.445	1.38
227.245	0.38
228.045	1.38
228.845	0.38
229.645	-1.62
230.444	2.38
231.244	1.38
232.043	2.38
232.843	3.38
233.642	0.38
234.442	-0.62
235.241	2.38
236.04	1.38
236.839	3.38
237.638	3.38
238.437	0.38
239.236	0.38
240.035	2.38
240.833	0.38
241.632	3.38
242.43	2.38
243.229	1.38
244.027	2.38
244.826	2.38
245.624	2.38
246.422	0.38
247.22	4.38
248.018	1.38
248.816	2.38
249.614	2.38
250.412	1.38
251.21	4.38
252.007	2.38
252.805	6.38
253.602	3.38
254.4	2.38
255.197	4.38
255.994	2.38
256.791	2.38
257.589	1.38
258.386	2.38
259.183	2.38
259.979	2.38
260.776	3.38
261.573	4.38
262.37	5.38
263.166	3.38
263.963	2.38
264.759	6.38
265.556	6.38
266.352	9.38
267.148	7.38
267.944	4.38
268.74	7.38
269.536	7.38
270.332	7.38
271.128	7.38
271.924	6.38
272.719	3.38
273.515	9.38
274.311	7.38
275.106	10.38
275.901	7.38
276.697	10.38
277.492	9.38
278.287	7.38
279.082	10.38
279.877	7.38
280.672	9.38
281.467	8.38
282.262	9.38
283.056	9.38
283.851	9.38
284.646	10.38
285.44	9.38
286.234	9.38
287.029	11.38
287.823	11.38
288.617	12.38
289.411	9.38
290.205	10.38
290.999	13.38
291.793	11.38
292.587	9.38
293.381	11.38
294.174	11.38
294.968	10.38
295.761	7.38
296.555	10.38
297.348	9.38
298.141	8.38
298.935	11.38
299.728	9.38
300.521	8.38
301.314	8.38
302.107	7.38
302.899	8.38
303.692	6.38
304.485	6.38
305.277	7.38
306.07	6.38
306.862	7.38
307.655	5.38
308.447	7.38
309.239	7.38
310.031	8.38
310.823	4.38
311.615	7.38
312.407	4.38
313.199	6.38
313.991	6.38
314.783	7.38
315.574	8.38
316.366	5.38
317.157	4.38
317.949	5.38
318.74	5.38
319.531	4.38
320.322	4.38
321.113	3.38
321.904	4.38
322.695	3.38
323.486	5.38
324.277	4.38
325.068	2.38
325.858	7.38
326.649	2.38
327.439	5.38
328.23	3.38
329.02	3.38
329.81	4.38
330.6	5.38
331.391	3.38
332.181	3.38
332.971	1.38
333.76	3.38
334.55	3.38
335.34	3.38
336.13	3.38
336.919	1.38
337.709	4.38
338.498	5.38
339.287	2.38
340.077	5.38
340.866	5.38
341.655	3.38
342.444	6.38
343.233	3.38
344.022	3.38
344.811	5.38
345.6	2.38
346.388	3.38
347.177	2.38
347.965	3.38
348.754	0.38
349.542	5.38
350.33	2.38
351.119	4.38
351.907	5.38
352.695	1.38
353.483	3.38
354.271	2.38
355.059	2.38
355.846	4.38
356.634	3.38
357.422	4.38
358.209	2.38
358.997	3.38
359.784	1.38
360.571	1.38
361.359	3.38
362.146	1.38
362.933	2.38
363.72	3.38
364.507	3.38
365.294	2.38
366.081	2.38
366.867	2.38
367.654	2.38
368.44	3.38
369.227	1.38
370.013	3.38
370.8	2.38
371.586	3.38
372.372	3.38
373.158	1.38
373.944	1.38
374.73	1.38
375.516	1.38
376.302	2.38
377.088	2.38
377.873	3.38
378.659	1.38
379.445	4.38
380.23	2.38
381.015	1.38
381.801	2.38
382.586	2.38
383.371	2.38
384.156	0.38
384.941	3.38
385.726	5.38
386.511	5.38
387.296	1.38
388.08	0.38
388.865	6.38
389.649	-0.62
390.434	1.38
391.218	3.38
392.003	3.38
392.787	2.38
393.571	0.38
394.355	3.38
395.139	2.38
395.923	1.38
396.707	3.38
397.491	4.38
398.274	2.38
399.058	3.38
399.842	2.38
400.625	3.38
401.408	5.38
402.192	2.38
402.975	3.38
403.758	3.38
404.541	3.38
405.324	3.38
406.107	3.38
406.89	3.38
407.673	5.38
408.456	3.38
409.238	3.38
410.021	3.38
410.803	5.38
411.586	2.38
412.368	3.38
413.151	3.38
413.933	6.38
414.715	3.38
415.497	2.38
416.279	5.38
417.061	3.38
417.843	7.38
418.624	4.38
419.406	3.38
420.188	5.38
420.969	2.38
421.751	6.38
422.532	4.38
423.313	5.38
424.095	7.38
424.876	6.38
425.657	7.38
426.438	6.38
427.219	8.38
428	5.38
428.78	7.38
429.561	6.38
430.342	7.38
431.122	7.38
431.903	5.38
432.683	7.38
433.464	8.38
434.244	9.38
435.024	9.38
435.804	8.38
436.584	10.38
437.364	7.38
438.144	9.38
438.924	11.38
439.704	10.38
440.483	10.38
441.263	11.38
442.042	14.38
442.822	13.38
443.601	15.38
444.38	14.38
445.16	17.38
445.939	16.38
446.718	19.38
447.497	18.38
448.276	22.38
449.054	23.38
449.833	21.38
450.612	24.38
451.391	29.38
452.169	30.38
452.948	33.38
453.726	33.38
454.504	41.38
455.282	42.38
456.061	47.38
456.839	53.38
457.617	57.38
458.395	63.38
459.172	68.38
459.95	76.38
460.728	84.38
461.506	97.38
462.283	106.38
463.061	120.38
463.838	135.38
464.615	148.38
465.393	166.38
466.17	185.38
466.947	203.38
467.724	225.38
468.501	245.38
469.278	276.38
470.055	315.38
470.831	348.38
471.608	390.38
472.385	426.38
473.161	479.38
473.938	531.38
474.714	581.38
475.49	640.38
476.266	705.38
477.043	801.38
477.819	873.38
478.595	956.38
479.371	1046.38
480.146	1164.38
480.922	1284.38
481.698	1415.38
482.473	1548.38
483.249	1700.38
484.024	1872.38
484.8	2040.38
485.575	2255.38
486.35	2461.38
487.126	2707.38
487.901	2979.38
488.676	3267.38
489.451	3586.38
490.225	3934.38
491	4304.38
491.775	4684.38
492.55	5138.38
493.324	5606.38
494.099	6114.38
494.873	6659.38
495.647	7241.38
496.422	7828.38
497.196	8505.38
497.97	9155.38
498.744	9856.38
499.518	10498.38
500.292	11239.38
501.066	11964.38
501.839	12590.38
502.613	13287.38
503.387	13877.38
504.16	14395.38
504.934	14873.38
505.707	15274.38
506.48	15606.38
507.253	15859.38
508.027	15910.38
508.8	15954.38
509.573	15970.38
510.346	15714.38
511.118	15513.38
511.891	15099.38
512.664	14723.38
513.437	14309.38
514.209	13783.38
514.982	13273.38
515.754	12730.38
516.526	12239.38
517.298	11687.38
518.071	11199.38
518.843	10744.38
519.615	10286.38
520.387	9908.38
521.159	9514.38
521.93	9066.38
522.702	8765.38
523.474	8403.38
524.245	8065.38
525.017	7758.38
525.788	7449.38
526.56	7112.38
527.331	6833.38
528.102	6561.38
528.873	6278.38
529.644	5980.38
530.415	5726.38
531.186	5473.38
531.957	5203.38
532.728	4931.38
533.498	4651.38
534.269	4425.38
535.039	4207.38
535.81	3963.38
536.58	3753.38
537.351	3564.38
538.121	3361.38
538.891	3176.38
539.661	3002.38
540.431	2837.38
541.201	2681.38
541.971	2541.38
542.741	2405.38
543.51	2275.38
544.28	2166.38
545.05	2057.38
545.819	1966.38
546.588	1861.38
547.358	1784.38
548.127	1683.38
548.896	1612.38
549.665	1516.38
550.434	1436.38
551.203	1369.38
551.972	1301.38
552.741	1225.38
553.51	1160.38
554.278	1118.38
555.047	1033.38
555.815	978.38
556.584	936.38
557.352	870.38
558.121	830.38
558.889	782.38
559.657	732.38
560.425	703.38
561.193	648.38
561.961	617.38
562.729	589.38
563.496	550.38
564.264	508.38
565.032	489.38
565.799	460.38
566.567	441.38
567.334	413.38
568.101	380.38
568.869	367.38
569.636	341.38
570.403	325.38
571.17	313.38
571.937	285.38
572.704	273.38
573.471	261.38
574.237	245.38
575.004	231.38
575.771	220.38
576.537	205.38
577.303	193.38
578.07	179.38
578.836	169.38
579.602	161.38
580.368	149.38
581.134	143.38
581.9	138.38
582.666	128.38
583.432	119.38
584.198	116.38
584.964	110.38
585.729	98.38
586.495	99.38
587.26	93.38
588.025	86.38
588.791	83.38
589.556	80.38
590.321	73.38
591.086	69.38
591.851	63.38
592.616	64.38
593.381	57.38
594.146	60.38
594.911	53.38
595.675	52.38
596.44	48.38
597.204	45.38
597.969	43.38
598.733	37.38
599.497	39.38
600.261	39.38
601.025	34.38
601.79	37.38
602.553	30.38
603.317	31.38
604.081	29.38
604.845	26.38
605.609	26.38
606.372	29.38
607.136	26.38
607.899	24.38
608.662	20.38
609.426	23.38
610.189	22.38
610.952	19.38
611.715	19.38
612.478	22.38
613.241	16.38
614.004	16.38
614.767	18.38
615.529	19.38
616.292	15.38
617.055	15.38
617.817	18.38
618.579	11.38
619.342	14.38
620.104	13.38
620.866	12.38
621.628	10.38
622.39	13.38
623.152	11.38
623.914	10.38
624.676	11.38
625.438	6.38
626.199	10.38
626.961	12.38
627.722	6.38
628.484	10.38
629.245	7.38
630.006	7.38
630.768	7.38
631.529	7.38
632.29	5.38
633.051	6.38
633.812	8.38
634.573	6.38
635.333	6.38
636.094	6.38
636.855	8.38
637.615	6.38
638.376	7.38
639.136	5.38
639.896	7.38
640.657	8.38
641.417	7.38
642.177	5.38
642.937	6.38
643.697	4.38
644.457	7.38
645.216	2.38
645.976	5.38
646.736	3.38
647.495	4.38
648.255	5.38
649.014	6.38
649.774	4.38
650.533	1.38
651.292	6.38
652.051	2.38
652.81	5.38
653.569	3.38
654.328	6.38
655.087	4.38
655.846	2.38
656.604	3.38
657.363	1.38
658.121	1.38
658.88	5.38
659.638	3.38
660.397	2.38
661.155	1.38
661.913	3.38
662.671	3.38
663.429	3.38
664.187	0.38
664.945	1.38
665.703	1.38
666.46	2.38
667.218	3.38
667.976	2.38
668.733	2.38
669.49	3.38
670.248	3.38
671.005	1.38
671.762	2.38
672.519	6.38
673.276	1.38
674.033	1.38
674.79	3.38
675.547	3.38
676.304	1.38
677.06	3.38
677.817	3.38
678.574	2.38
679.33	1.38
680.086	1.38
680.843	2.38
681.599	1.38
682.355	3.38
683.111	3.38
683.867	3.38
684.623	1.38
685.379	3.38
686.135	3.38
686.89	3.38
687.646	2.38
688.402	2.38
689.157	1.38
689.912	-0.62
690.668	3.38
691.423	2.38
692.178	2.38
692.933	1.38
693.688	1.38
694.443	2.38
695.198	2.38
695.953	2.38
696.708	1.38
697.462	5.38
698.217	2.38
698.972	4.38
699.726	1.38
700.48	2.38
701.235	1.38
701.989	0.38
702.743	3.38
703.497	3.38
704.251	1.38
705.005	2.38
705.759	2.38
706.513	2.38
707.266	0.38
708.02	-0.62
708.774	3.38
709.527	3.38
710.28	2.38
711.034	3.38
711.787	1.38
712.54	2.38
713.293	1.38
714.046	1.38
714.799	0.38
715.552	1.38
716.305	1.38
717.058	2.38
717.81	1.38
718.563	1.38
719.315	1.38
720.068	1.38
720.82	3.38
721.573	3.38
722.325	2.38
723.077	4.38
723.829	-0.62
724.581	1.38
725.333	3.38
726.085	1.38
726.836	-0.62
727.588	3.38
728.34	0.38
729.091	5.38
729.843	2.38
730.594	4.38
731.346	2.38
732.097	2.38
732.848	1.38
733.599	1.38
734.35	2.38
735.101	2.38
735.852	2.38
736.603	3.38
737.354	2.38
738.104	3.38
738.855	2.38
739.605	2.38
740.356	2.38
741.106	1.38
741.856	0.38
742.607	1.38
743.357	5.38
744.107	0.38
744.857	3.38
745.607	2.38
746.357	2.38
747.106	1.38
747.856	1.38
748.606	4.38
749.355	2.38
750.105	2.38
750.854	1.38
751.603	2.38
752.353	1.38
753.102	1.38
753.851	3.38
754.6	4.38
755.349	3.38
756.098	2.38
756.847	3.38
757.595	2.38
758.344	2.38
759.093	2.38
759.841	2.38
760.589	4.38
761.338	4.38
762.086	4.38
762.834	2.38
763.582	3.38
764.331	4.38
765.079	2.38
765.826	4.38
766.574	3.38
767.322	2.38
768.07	3.38
768.817	4.38
769.565	5.38
770.312	2.38
771.06	4.38
771.807	2.38
772.554	1.38
773.302	3.38
774.049	6.38
774.796	4.38
775.543	5.38
776.29	5.38
777.036	5.38
777.783	2.38
778.53	3.38
779.276	4.38
780.023	5.38
780.769	3.38
781.516	5.38
782.262	6.38
783.008	5.38
783.754	4.38
784.5	4.38
785.246	4.38
785.992	5.38
786.738	6.38
787.484	3.38
788.23	6.38
788.975	5.38
789.721	2.38
790.466	5.38
791.212	5.38
791.957	5.38
792.702	5.38
793.447	6.38
794.193	5.38
794.938	6.38
795.683	5.38
796.427	4.38
797.172	5.38
797.917	4.38
798.662	5.38
799.406	4.38
800.151	2.38
800.895	7.38
801.64	3.38
802.384	6.38
803.128	5.38
803.872	0.38
804.616	5.38
805.36	4.38
806.104	4.38
806.848	5.38
807.592	4.38
808.336	4.38
809.079	4.38
809.823	4.38
810.566	4.38
811.31	4.38
812.053	2.38
812.796	7.38
813.539	4.38
814.283	2.38
815.026	5.38
815.769	3.38
816.511	3.38
817.254	2.38
817.997	3.38
818.74	2.38
819.482	3.38
820.225	4.38
820.967	3.38
821.71	5.38
822.452	4.38
823.194	3.38
823.936	4.38
824.678	2.38
825.42	2.38
826.162	2.38
826.904	3.38
827.646	0.38
828.388	2.38
829.129	2.38
829.871	1.38
830.612	5.38
831.354	3.38
832.095	3.38
832.836	3.38
833.577	3.38
834.319	3.38
835.06	2.38
835.801	3.38
836.542	1.38
837.282	-1.62
838.023	4.38
838.764	3.38
839.504	2.38
840.245	1.38
840.985	5.38
841.726	1.38
842.466	0.38
843.206	1.38
843.946	0.38
844.687	4.38
845.427	0.38
846.166	4.38
846.906	4.38
847.646	3.38
848.386	1.38
849.125	2.38
849.865	1.38
850.605	0.38
851.344	2.38
852.083	0.38
852.823	3.38
853.562	0.38
854.301	2.38
855.04	2.38
855.779	1.38
856.518	2.38
857.257	2.38
857.995	0.38
858.734	2.38
859.473	1.38
860.211	1.38
860.95	1.38
861.688	3.38
862.426	2.38
863.165	1.38
863.903	1.38
864.641	-0.62
865.379	1.38
866.117	0.38
866.855	0.38
867.593	0.38
868.33	1.38
869.068	1.38
869.806	1.38
870.543	3.38
871.28	0.38
872.018	2.38
872.755	0.38
873.492	1.38
874.229	1.38
874.967	-1.62
875.703	2.38
876.44	2.38
877.177	1.38
877.914	0.38
878.651	-0.62
879.387	1.38
880.124	-0.62
880.86	1.38
881.597	0.38
882.333	-0.62
883.069	2.38
883.806	-0.62
884.542	1.38
885.278	-1.62
886.014	1.38
886.749	2.38
887.485	1.38
888.221	1.38
888.957	0.38
889.692	-1.62
890.428	0.38
891.163	2.38
891.899	-0.62
892.634	2.38
893.369	0.38
894.104	0.38
894.839	-0.62
895.574	-2.62
896.309	1.38
897.044	-0.62
897.779	-0.62
898.514	-2.62
899.248	0.38
899.983	1.38
900.717	-0.62
901.452	1.38
902.186	0.38
902.92	-1.62
903.654	0.38
904.389	1.38
905.123	-0.62
905.857	1.38
906.59	3.38
907.324	0.38
908.058	0.38
908.792	1.38
909.525	0.38
910.259	0.38
910.992	1.38
911.726	2.38
912.459	0.38
913.192	-2.62
913.925	0.38
914.658	0.38
915.391	1.38
916.124	-0.62
916.857	1.38
917.59	-0.62
918.323	-0.62
919.055	1.38
919.788	1.38
920.521	0.38
921.253	-1.62
921.985	1.38
922.718	1.38
923.45	1.38
924.182	0.38
924.914	0.38
925.646	1.38
926.378	0.38
927.11	1.38
927.841	1.38
928.573	0.38
929.305	0.38
930.036	-1.62
930.768	0.38
931.499	1.38
932.23	3.38
932.962	0.38
933.693	1.38
934.424	1.38
935.155	1.38
935.886	2.38
936.617	-1.62
937.348	0.38
938.078	2.38
938.809	-1.62
939.54	0.38
940.27	0.38
941.001	-1.62
941.731	-1.62
942.461	1.38
943.191	0.38
943.922	0.38
944.652	0.38
945.382	1.38
946.112	-0.62
946.841	0.38
947.571	0.38
948.301	1.38
949.031	-0.62
949.76	0.38
950.49	-0.62
951.219	0.38
951.948	0.38
952.678	1.38
953.407	1.38
954.136	0.38
954.865	0.38
955.594	0.38
956.323	0.38
957.052	3.38
957.78	-0.62
958.509	-0.62
959.238	0.38
959.966	2.38
960.695	-1.62
961.423	-1.62
962.151	-0.62
962.88	1.38
963.608	-0.62
964.336	-0.62
965.064	1.38
965.792	-1.62
966.52	1.38
967.247	-1.62
967.975	-0.62
968.703	1.38
969.43	-2.62
970.158	3.38
970.885	0.38
971.613	-0.62
972.34	-2.62
973.067	-1.62
973.794	1.38
974.521	1.38
975.248	0.38
975.975	-0.62
976.702	1.38
977.429	-0.62
978.156	1.38
978.882	1.38
979.609	-1.62
980.335	1.38
981.062	-0.62
981.788	1.38
982.514	0.38
983.24	0.38
983.967	0.38
984.693	0.38
985.419	1.38
986.144	2.38
986.87	0.38
987.596	-0.62
988.322	-0.62
989.047	-1.62
989.773	0.38
990.498	1.38
991.224	-0.62
991.949	0.38
992.674	2.38
993.399	0.38
994.124	2.38
994.849	-0.62
995.574	1.38
996.299	1.38
997.024	1.38
997.749	-1.62
998.473	-0.62
999.198	0.38
999.922	1.38
1000.647	0.38
1001.371	3.38
1002.095	0.38
1002.82	-1.62
1003.544	-1.62
1004.268	-0.62
1004.992	-1.62
1005.716	1.38
1006.439	-0.62
1007.163	-0.62
1007.887	2.38
1008.611	2.38
1009.334	-0.62
1010.058	0.38
1010.781	-0.62
1011.504	0.38
1012.228	-0.62
1012.951	-0.62
1013.674	-0.62
1014.397	0.38
1015.12	0.38
