节点500_145_QEPB04081__600__11-38-29-360.txt的数据

Date: Wed Nov 12 11:38:29 CST 2025
User: PC
Spectrometer: QEPB0408
触发模式: 0
积分时间 (秒): 1.000000E-2
Scans to average: 1
启用暗噪声校正: true
启用非线性校正: false
滑动平均宽度: 0
X轴模式: Wavelengths
Number of Pixels in Spectrum: 1044
>>>>>Begin Spectral Data<<<<<
220.843	-0.38
221.644	-0.38
222.444	-1.38
223.244	1.62
224.045	1.62
224.845	-0.38
225.645	-1.38
226.445	-0.38
227.245	-1.38
228.045	2.62
228.845	-1.38
229.645	1.62
230.444	0.62
231.244	-0.38
232.043	3.62
232.843	1.62
233.642	-1.38
234.442	1.62
235.241	1.62
236.04	0.62
236.839	0.62
237.638	1.62
238.437	-0.38
239.236	0.62
240.035	1.62
240.833	3.62
241.632	2.62
242.43	-1.38
243.229	2.62
244.027	0.62
244.826	3.62
245.624	1.62
246.422	2.62
247.22	2.62
248.018	-1.38
248.816	2.62
249.614	1.62
250.412	2.62
251.21	2.62
252.007	2.62
252.805	2.62
253.602	2.62
254.4	2.62
255.197	2.62
255.994	3.62
256.791	2.62
257.589	2.62
258.386	4.62
259.183	4.62
259.979	2.62
260.776	3.62
261.573	3.62
262.37	3.62
263.166	4.62
263.963	5.62
264.759	5.62
265.556	5.62
266.352	5.62
267.148	7.62
267.944	7.62
268.74	3.62
269.536	4.62
270.332	5.62
271.128	4.62
271.924	4.62
272.719	7.62
273.515	5.62
274.311	9.62
275.106	8.62
275.901	9.62
276.697	7.62
277.492	7.62
278.287	9.62
279.082	7.62
279.877	7.62
280.672	11.62
281.467	7.62
282.262	13.62
283.056	9.62
283.851	8.62
284.646	8.62
285.44	10.62
286.234	9.62
287.029	10.62
287.823	10.62
288.617	8.62
289.411	9.62
290.205	9.62
290.999	9.62
291.793	10.62
292.587	7.62
293.381	9.62
294.174	9.62
294.968	9.62
295.761	8.62
296.555	10.62
297.348	10.62
298.141	8.62
298.935	12.62
299.728	10.62
300.521	9.62
301.314	7.62
302.107	7.62
302.899	7.62
303.692	8.62
304.485	8.62
305.277	7.62
306.07	7.62
306.862	8.62
307.655	7.62
308.447	8.62
309.239	10.62
310.031	9.62
310.823	8.62
311.615	7.62
312.407	7.62
313.199	5.62
313.991	7.62
314.783	4.62
315.574	5.62
316.366	6.62
317.157	4.62
317.949	7.62
318.74	5.62
319.531	5.62
320.322	4.62
321.113	5.62
321.904	6.62
322.695	3.62
323.486	5.62
324.277	2.62
325.068	5.62
325.858	6.62
326.649	2.62
327.439	4.62
328.23	4.62
329.02	4.62
329.81	4.62
330.6	3.62
331.391	3.62
332.181	3.62
332.971	4.62
333.76	3.62
334.55	2.62
335.34	4.62
336.13	4.62
336.919	4.62
337.709	2.62
338.498	4.62
339.287	0.62
340.077	4.62
340.866	5.62
341.655	4.62
342.444	0.62
343.233	4.62
344.022	6.62
344.811	1.62
345.6	2.62
346.388	2.62
347.177	4.62
347.965	3.62
348.754	1.62
349.542	4.62
350.33	2.62
351.119	4.62
351.907	1.62
352.695	3.62
353.483	3.62
354.271	1.62
355.059	2.62
355.846	0.62
356.634	5.62
357.422	3.62
358.209	2.62
358.997	3.62
359.784	2.62
360.571	2.62
361.359	1.62
362.146	3.62
362.933	1.62
363.72	2.62
364.507	2.62
365.294	4.62
366.081	1.62
366.867	0.62
367.654	4.62
368.44	-0.38
369.227	2.62
370.013	1.62
370.8	3.62
371.586	2.62
372.372	3.62
373.158	4.62
373.944	4.62
374.73	2.62
375.516	4.62
376.302	1.62
377.088	3.62
377.873	1.62
378.659	1.62
379.445	1.62
380.23	1.62
381.015	2.62
381.801	1.62
382.586	2.62
383.371	2.62
384.156	3.62
384.941	1.62
385.726	1.62
386.511	4.62
387.296	0.62
388.08	5.62
388.865	2.62
389.649	3.62
390.434	2.62
391.218	1.62
392.003	0.62
392.787	2.62
393.571	1.62
394.355	4.62
395.139	3.62
395.923	4.62
396.707	4.62
397.491	3.62
398.274	1.62
399.058	3.62
399.842	4.62
400.625	2.62
401.408	2.62
402.192	5.62
402.975	2.62
403.758	3.62
404.541	3.62
405.324	4.62
406.107	4.62
406.89	4.62
407.673	2.62
408.456	3.62
409.238	5.62
410.021	5.62
410.803	2.62
411.586	3.62
412.368	3.62
413.151	4.62
413.933	4.62
414.715	3.62
415.497	5.62
416.279	5.62
417.061	6.62
417.843	4.62
418.624	5.62
419.406	5.62
420.188	5.62
420.969	4.62
421.751	4.62
422.532	5.62
423.313	4.62
424.095	3.62
424.876	6.62
425.657	4.62
426.438	6.62
427.219	5.62
428	6.62
428.78	7.62
429.561	5.62
430.342	6.62
431.122	9.62
431.903	8.62
432.683	5.62
433.464	7.62
434.244	6.62
435.024	8.62
435.804	10.62
436.584	9.62
437.364	10.62
438.144	9.62
438.924	8.62
439.704	10.62
440.483	9.62
441.263	10.62
442.042	11.62
442.822	14.62
443.601	15.62
444.38	15.62
445.16	16.62
445.939	16.62
446.718	18.62
447.497	20.62
448.276	21.62
449.054	23.62
449.833	25.62
450.612	26.62
451.391	25.62
452.169	33.62
452.948	34.62
453.726	37.62
454.504	39.62
455.282	40.62
456.061	47.62
456.839	51.62
457.617	59.62
458.395	63.62
459.172	74.62
459.95	82.62
460.728	87.62
461.506	99.62
462.283	114.62
463.061	124.62
463.838	135.62
464.615	153.62
465.393	166.62
466.17	188.62
466.947	213.62
467.724	233.62
468.501	261.62
469.278	288.62
470.055	318.62
470.831	357.62
471.608	388.62
472.385	427.62
473.161	483.62
473.938	536.62
474.714	584.62
475.49	656.62
476.266	719.62
477.043	783.62
477.819	861.62
478.595	964.62
479.371	1050.62
480.146	1160.62
480.922	1263.62
481.698	1386.62
482.473	1525.62
483.249	1678.62
484.024	1825.62
484.8	1996.62
485.575	2178.62
486.35	2406.62
487.126	2618.62
487.901	2872.62
488.676	3162.62
489.451	3425.62
490.225	3749.62
491	4086.62
491.775	4484.62
492.55	4871.62
493.324	5303.62
494.099	5760.62
494.873	6274.62
495.647	6830.62
496.422	7372.62
497.196	7929.62
497.97	8573.62
498.744	9207.62
499.518	9884.62
500.292	10522.62
501.066	11151.62
501.839	11803.62
502.613	12377.62
503.387	12971.62
504.16	13509.62
504.934	14027.62
505.707	14417.62
506.48	14718.62
507.253	15051.62
508.027	15192.62
508.8	15269.62
509.573	15265.62
510.346	15088.62
511.118	14959.62
511.891	14678.62
512.664	14344.62
513.437	13981.62
514.209	13559.62
514.982	13067.62
515.754	12578.62
516.526	12086.62
517.298	11536.62
518.071	11085.62
518.843	10718.62
519.615	10249.62
520.387	9812.62
521.159	9430.62
521.93	9040.62
522.702	8674.62
523.474	8342.62
524.245	8018.62
525.017	7706.62
525.788	7354.62
526.56	7073.62
527.331	6767.62
528.102	6530.62
528.873	6255.62
529.644	5964.62
530.415	5731.62
531.186	5436.62
531.957	5211.62
532.728	4919.62
533.498	4686.62
534.269	4462.62
535.039	4229.62
535.81	4026.62
536.58	3779.62
537.351	3592.62
538.121	3389.62
538.891	3210.62
539.661	3035.62
540.431	2860.62
541.201	2710.62
541.971	2576.62
542.741	2429.62
543.51	2284.62
544.28	2190.62
545.05	2068.62
545.819	1971.62
546.588	1889.62
547.358	1801.62
548.127	1695.62
548.896	1611.62
549.665	1532.62
550.434	1472.62
551.203	1378.62
551.972	1310.62
552.741	1243.62
553.51	1179.62
554.278	1114.62
555.047	1058.62
555.815	1005.62
556.584	946.62
557.352	899.62
558.121	831.62
558.889	797.62
559.657	748.62
560.425	699.62
561.193	663.62
561.961	631.62
562.729	595.62
563.496	560.62
564.264	528.62
565.032	500.62
565.799	467.62
566.567	441.62
567.334	424.62
568.101	393.62
568.869	371.62
569.636	347.62
570.403	332.62
571.17	319.62
571.937	303.62
572.704	277.62
573.471	267.62
574.237	241.62
575.004	234.62
575.771	219.62
576.537	204.62
577.303	191.62
578.07	184.62
578.836	175.62
579.602	162.62
580.368	151.62
581.134	139.62
581.9	135.62
582.666	130.62
583.432	123.62
584.198	119.62
584.964	112.62
585.729	101.62
586.495	99.62
587.26	93.62
588.025	85.62
588.791	85.62
589.556	79.62
590.321	74.62
591.086	69.62
591.851	67.62
592.616	62.62
593.381	61.62
594.146	58.62
594.911	51.62
595.675	53.62
596.44	48.62
597.204	47.62
597.969	44.62
598.733	43.62
599.497	42.62
600.261	36.62
601.025	35.62
601.79	36.62
602.553	31.62
603.317	29.62
604.081	30.62
604.845	29.62
605.609	29.62
606.372	27.62
607.136	26.62
607.899	25.62
608.662	22.62
609.426	21.62
610.189	21.62
610.952	22.62
611.715	20.62
612.478	16.62
613.241	19.62
614.004	17.62
614.767	18.62
615.529	17.62
616.292	15.62
617.055	14.62
617.817	14.62
618.579	13.62
619.342	10.62
620.104	12.62
620.866	12.62
621.628	12.62
622.39	12.62
623.152	12.62
623.914	11.62
624.676	10.62
625.438	9.62
626.199	9.62
626.961	12.62
627.722	10.62
628.484	8.62
629.245	12.62
630.006	7.62
630.768	9.62
631.529	8.62
632.29	7.62
633.051	7.62
633.812	7.62
634.573	9.62
635.333	8.62
636.094	7.62
636.855	7.62
637.615	7.62
638.376	7.62
639.136	6.62
639.896	5.62
640.657	5.62
641.417	5.62
642.177	6.62
642.937	5.62
643.697	6.62
644.457	4.62
645.216	2.62
645.976	2.62
646.736	5.62
647.495	2.62
648.255	5.62
649.014	3.62
649.774	2.62
650.533	3.62
651.292	0.62
652.051	3.62
652.81	3.62
653.569	3.62
654.328	3.62
655.087	2.62
655.846	2.62
656.604	4.62
657.363	2.62
658.121	3.62
658.88	2.62
659.638	3.62
660.397	-0.38
661.155	3.62
661.913	2.62
662.671	2.62
663.429	6.62
664.187	3.62
664.945	4.62
665.703	1.62
666.46	1.62
667.218	2.62
667.976	2.62
668.733	4.62
669.49	1.62
670.248	4.62
671.005	3.62
671.762	3.62
672.519	3.62
673.276	1.62
674.033	0.62
674.79	5.62
675.547	3.62
676.304	1.62
677.06	3.62
677.817	2.62
678.574	0.62
679.33	1.62
680.086	1.62
680.843	2.62
681.599	0.62
682.355	2.62
683.111	2.62
683.867	2.62
684.623	3.62
685.379	1.62
686.135	2.62
686.89	2.62
687.646	2.62
688.402	3.62
689.157	2.62
689.912	2.62
690.668	2.62
691.423	3.62
692.178	3.62
692.933	0.62
693.688	1.62
694.443	1.62
695.198	4.62
695.953	3.62
696.708	2.62
697.462	1.62
698.217	3.62
698.972	2.62
699.726	1.62
700.48	2.62
701.235	0.62
701.989	1.62
702.743	0.62
703.497	1.62
704.251	1.62
705.005	3.62
705.759	0.62
706.513	1.62
707.266	4.62
708.02	1.62
708.774	1.62
709.527	2.62
710.28	2.62
711.034	4.62
711.787	0.62
712.54	-0.38
713.293	1.62
714.046	0.62
714.799	1.62
715.552	4.62
716.305	3.62
717.058	-0.38
717.81	1.62
718.563	3.62
719.315	2.62
720.068	1.62
720.82	3.62
721.573	2.62
722.325	0.62
723.077	2.62
723.829	1.62
724.581	5.62
725.333	3.62
726.085	0.62
726.836	1.62
727.588	1.62
728.34	1.62
729.091	2.62
729.843	3.62
730.594	1.62
731.346	1.62
732.097	1.62
732.848	3.62
733.599	4.62
734.35	0.62
735.101	2.62
735.852	3.62
736.603	2.62
737.354	2.62
738.104	1.62
738.855	4.62
739.605	1.62
740.356	3.62
741.106	1.62
741.856	3.62
742.607	2.62
743.357	0.62
744.107	5.62
744.857	0.62
745.607	4.62
746.357	1.62
747.106	0.62
747.856	0.62
748.606	1.62
749.355	0.62
750.105	4.62
750.854	0.62
751.603	3.62
752.353	3.62
753.102	2.62
753.851	-1.38
754.6	4.62
755.349	3.62
756.098	3.62
756.847	5.62
757.595	0.62
758.344	2.62
759.093	2.62
759.841	3.62
760.589	4.62
761.338	3.62
762.086	2.62
762.834	1.62
763.582	2.62
764.331	3.62
765.079	2.62
765.826	2.62
766.574	2.62
767.322	4.62
768.07	3.62
768.817	2.62
769.565	-0.38
770.312	3.62
771.06	3.62
771.807	2.62
772.554	2.62
773.302	5.62
774.049	4.62
774.796	1.62
775.543	1.62
776.29	5.62
777.036	8.62
777.783	7.62
778.53	3.62
779.276	3.62
780.023	2.62
780.769	4.62
781.516	4.62
782.262	5.62
783.008	8.62
783.754	3.62
784.5	5.62
785.246	2.62
785.992	2.62
786.738	6.62
787.484	5.62
788.23	7.62
788.975	5.62
789.721	6.62
790.466	3.62
791.212	4.62
791.957	6.62
792.702	5.62
793.447	6.62
794.193	4.62
794.938	5.62
795.683	4.62
796.427	4.62
797.172	5.62
797.917	3.62
798.662	1.62
799.406	2.62
800.151	5.62
800.895	2.62
801.64	5.62
802.384	4.62
803.128	3.62
803.872	5.62
804.616	4.62
805.36	4.62
806.104	5.62
806.848	3.62
807.592	5.62
808.336	4.62
809.079	4.62
809.823	1.62
810.566	3.62
811.31	5.62
812.053	4.62
812.796	5.62
813.539	1.62
814.283	1.62
815.026	2.62
815.769	1.62
816.511	1.62
817.254	1.62
817.997	3.62
818.74	3.62
819.482	2.62
820.225	3.62
820.967	2.62
821.71	2.62
822.452	2.62
823.194	4.62
823.936	1.62
824.678	1.62
825.42	2.62
826.162	2.62
826.904	1.62
827.646	4.62
828.388	1.62
829.129	3.62
829.871	4.62
830.612	2.62
831.354	2.62
832.095	1.62
832.836	3.62
833.577	1.62
834.319	0.62
835.06	5.62
835.801	1.62
836.542	4.62
837.282	2.62
838.023	2.62
838.764	3.62
839.504	4.62
840.245	2.62
840.985	1.62
841.726	3.62
842.466	4.62
843.206	3.62
843.946	1.62
844.687	1.62
845.427	2.62
846.166	0.62
846.906	4.62
847.646	3.62
848.386	2.62
849.125	2.62
849.865	0.62
850.605	1.62
851.344	0.62
852.083	1.62
852.823	2.62
853.562	1.62
854.301	1.62
855.04	1.62
855.779	1.62
856.518	0.62
857.257	3.62
857.995	0.62
858.734	2.62
859.473	3.62
860.211	1.62
860.95	1.62
861.688	1.62
862.426	0.62
863.165	2.62
863.903	1.62
864.641	2.62
865.379	0.62
866.117	3.62
866.855	-1.38
867.593	1.62
868.33	1.62
869.068	0.62
869.806	2.62
870.543	0.62
871.28	0.62
872.018	1.62
872.755	1.62
873.492	0.62
874.229	0.62
874.967	2.62
875.703	0.62
876.44	2.62
877.177	1.62
877.914	0.62
878.651	-0.38
879.387	2.62
880.124	2.62
880.86	0.62
881.597	0.62
882.333	-0.38
883.069	3.62
883.806	1.62
884.542	-0.38
885.278	2.62
886.014	0.62
886.749	-0.38
887.485	2.62
888.221	1.62
888.957	1.62
889.692	1.62
890.428	-0.38
891.163	-1.38
891.899	0.62
892.634	1.62
893.369	2.62
894.104	1.62
894.839	-1.38
895.574	2.62
896.309	-1.38
897.044	-0.38
897.779	0.62
898.514	0.62
899.248	1.62
899.983	2.62
900.717	1.62
901.452	0.62
902.186	0.62
902.92	-0.38
903.654	-0.38
904.389	2.62
905.123	0.62
905.857	1.62
906.59	-0.38
907.324	1.62
908.058	3.62
908.792	1.62
909.525	-1.38
910.259	-1.38
910.992	1.62
911.726	1.62
912.459	1.62
913.192	0.62
913.925	1.62
914.658	0.62
915.391	-1.38
916.124	-0.38
916.857	-0.38
917.59	1.62
918.323	1.62
919.055	0.62
919.788	-2.38
920.521	0.62
921.253	2.62
921.985	0.62
922.718	0.62
923.45	-0.38
924.182	1.62
924.914	0.62
925.646	1.62
926.378	1.62
927.11	2.62
927.841	0.62
928.573	-0.38
929.305	0.62
930.036	1.62
930.768	0.62
931.499	0.62
932.23	-0.38
932.962	0.62
933.693	1.62
934.424	-0.38
935.155	0.62
935.886	0.62
936.617	1.62
937.348	0.62
938.078	-1.38
938.809	0.62
939.54	-0.38
940.27	1.62
941.001	0.62
941.731	0.62
942.461	0.62
943.191	-0.38
943.922	0.62
944.652	-0.38
945.382	-0.38
946.112	0.62
946.841	1.62
947.571	0.62
948.301	0.62
949.031	-0.38
949.76	-0.38
950.49	0.62
951.219	0.62
951.948	0.62
952.678	-1.38
953.407	2.62
954.136	1.62
954.865	-0.38
955.594	0.62
956.323	-0.38
957.052	-0.38
957.78	-0.38
958.509	-1.38
959.238	0.62
959.966	0.62
960.695	1.62
961.423	1.62
962.151	-0.38
962.88	0.62
963.608	-1.38
964.336	0.62
965.064	-0.38
965.792	2.62
966.52	0.62
967.247	-0.38
967.975	0.62
968.703	-0.38
969.43	0.62
970.158	-0.38
970.885	0.62
971.613	0.62
972.34	0.62
973.067	1.62
973.794	-0.38
974.521	1.62
975.248	-0.38
975.975	0.62
976.702	-0.38
977.429	-0.38
978.156	1.62
978.882	-0.38
979.609	-0.38
980.335	-1.38
981.062	1.62
981.788	0.62
982.514	-0.38
983.24	0.62
983.967	-1.38
984.693	0.62
985.419	-0.38
986.144	-0.38
986.87	1.62
987.596	-1.38
988.322	-0.38
989.047	0.62
989.773	0.62
990.498	-1.38
991.224	-0.38
991.949	0.62
992.674	-1.38
993.399	-0.38
994.124	0.62
994.849	2.62
995.574	-1.38
996.299	-1.38
997.024	-0.38
997.749	0.62
998.473	0.62
999.198	1.62
999.922	-0.38
1000.647	1.62
1001.371	3.62
1002.095	-0.38
1002.82	-1.38
1003.544	-0.38
1004.268	-1.38
1004.992	1.62
1005.716	-1.38
1006.439	-0.38
1007.163	1.62
1007.887	0.62
1008.611	-1.38
1009.334	2.62
1010.058	3.62
1010.781	0.62
1011.504	-1.38
1012.228	-0.38
1012.951	-2.38
1013.674	0.62
1014.397	0.62
1015.12	-0.38
