节点500_145_QEPB04081__82__11-30-16-643.txt的数据

Date: Wed Nov 12 11:30:16 CST 2025
User: PC
Spectrometer: QEPB0408
触发模式: 0
积分时间 (秒): 1.000000E-2
Scans to average: 1
启用暗噪声校正: true
启用非线性校正: false
滑动平均宽度: 0
X轴模式: Wavelengths
Number of Pixels in Spectrum: 1044
>>>>>Begin Spectral Data<<<<<
220.843	-1.38
221.644	-0.38
222.444	2.62
223.244	-0.38
224.045	1.62
224.845	2.62
225.645	0.62
226.445	0.62
227.245	0.62
228.045	1.62
228.845	-1.38
229.645	1.62
230.444	0.62
231.244	-0.38
232.043	1.62
232.843	1.62
233.642	1.62
234.442	-0.38
235.241	2.62
236.04	1.62
236.839	2.62
237.638	0.62
238.437	1.62
239.236	1.62
240.035	1.62
240.833	0.62
241.632	0.62
242.43	2.62
243.229	1.62
244.027	1.62
244.826	0.62
245.624	2.62
246.422	1.62
247.22	1.62
248.018	3.62
248.816	1.62
249.614	2.62
250.412	3.62
251.21	3.62
252.007	4.62
252.805	4.62
253.602	5.62
254.4	2.62
255.197	1.62
255.994	0.62
256.791	1.62
257.589	3.62
258.386	2.62
259.183	5.62
259.979	4.62
260.776	2.62
261.573	6.62
262.37	3.62
263.166	3.62
263.963	6.62
264.759	5.62
265.556	7.62
266.352	8.62
267.148	6.62
267.944	8.62
268.74	7.62
269.536	8.62
270.332	8.62
271.128	8.62
271.924	9.62
272.719	7.62
273.515	10.62
274.311	8.62
275.106	11.62
275.901	9.62
276.697	11.62
277.492	9.62
278.287	12.62
279.082	9.62
279.877	9.62
280.672	10.62
281.467	11.62
282.262	10.62
283.056	11.62
283.851	10.62
284.646	9.62
285.44	12.62
286.234	12.62
287.029	10.62
287.823	12.62
288.617	11.62
289.411	14.62
290.205	10.62
290.999	11.62
291.793	13.62
292.587	12.62
293.381	9.62
294.174	10.62
294.968	11.62
295.761	9.62
296.555	8.62
297.348	13.62
298.141	10.62
298.935	9.62
299.728	10.62
300.521	7.62
301.314	9.62
302.107	8.62
302.899	7.62
303.692	9.62
304.485	10.62
305.277	9.62
306.07	8.62
306.862	8.62
307.655	9.62
308.447	6.62
309.239	5.62
310.031	7.62
310.823	8.62
311.615	6.62
312.407	7.62
313.199	9.62
313.991	7.62
314.783	6.62
315.574	7.62
316.366	4.62
317.157	6.62
317.949	6.62
318.74	4.62
319.531	5.62
320.322	7.62
321.113	3.62
321.904	5.62
322.695	5.62
323.486	5.62
324.277	4.62
325.068	4.62
325.858	4.62
326.649	1.62
327.439	4.62
328.23	3.62
329.02	4.62
329.81	3.62
330.6	2.62
331.391	4.62
332.181	1.62
332.971	3.62
333.76	1.62
334.55	3.62
335.34	2.62
336.13	3.62
336.919	3.62
337.709	4.62
338.498	5.62
339.287	3.62
340.077	4.62
340.866	2.62
341.655	3.62
342.444	4.62
343.233	1.62
344.022	5.62
344.811	3.62
345.6	4.62
346.388	5.62
347.177	3.62
347.965	1.62
348.754	5.62
349.542	5.62
350.33	2.62
351.119	2.62
351.907	5.62
352.695	4.62
353.483	3.62
354.271	3.62
355.059	3.62
355.846	3.62
356.634	3.62
357.422	2.62
358.209	4.62
358.997	1.62
359.784	2.62
360.571	3.62
361.359	3.62
362.146	2.62
362.933	2.62
363.72	4.62
364.507	2.62
365.294	1.62
366.081	3.62
366.867	2.62
367.654	2.62
368.44	1.62
369.227	2.62
370.013	2.62
370.8	3.62
371.586	3.62
372.372	4.62
373.158	1.62
373.944	2.62
374.73	4.62
375.516	4.62
376.302	3.62
377.088	5.62
377.873	0.62
378.659	2.62
379.445	4.62
380.23	1.62
381.015	2.62
381.801	3.62
382.586	5.62
383.371	3.62
384.156	1.62
384.941	3.62
385.726	3.62
386.511	4.62
387.296	1.62
388.08	3.62
388.865	3.62
389.649	2.62
390.434	2.62
391.218	3.62
392.003	6.62
392.787	3.62
393.571	3.62
394.355	5.62
395.139	2.62
395.923	4.62
396.707	2.62
397.491	4.62
398.274	4.62
399.058	6.62
399.842	4.62
400.625	4.62
401.408	3.62
402.192	5.62
402.975	4.62
403.758	6.62
404.541	2.62
405.324	2.62
406.107	1.62
406.89	6.62
407.673	2.62
408.456	4.62
409.238	3.62
410.021	5.62
410.803	5.62
411.586	5.62
412.368	5.62
413.151	6.62
413.933	3.62
414.715	6.62
415.497	4.62
416.279	4.62
417.061	6.62
417.843	8.62
418.624	2.62
419.406	6.62
420.188	4.62
420.969	5.62
421.751	4.62
422.532	7.62
423.313	8.62
424.095	4.62
424.876	7.62
425.657	9.62
426.438	8.62
427.219	6.62
428	7.62
428.78	9.62
429.561	10.62
430.342	7.62
431.122	8.62
431.903	9.62
432.683	6.62
433.464	6.62
434.244	8.62
435.024	9.62
435.804	8.62
436.584	10.62
437.364	10.62
438.144	10.62
438.924	9.62
439.704	12.62
440.483	13.62
441.263	11.62
442.042	13.62
442.822	11.62
443.601	13.62
444.38	14.62
445.16	13.62
445.939	16.62
446.718	18.62
447.497	19.62
448.276	17.62
449.054	23.62
449.833	21.62
450.612	23.62
451.391	26.62
452.169	25.62
452.948	32.62
453.726	32.62
454.504	36.62
455.282	34.62
456.061	40.62
456.839	49.62
457.617	48.62
458.395	58.62
459.172	60.62
459.95	74.62
460.728	74.62
461.506	86.62
462.283	90.62
463.061	102.62
463.838	118.62
464.615	128.62
465.393	144.62
466.17	158.62
466.947	180.62
467.724	205.62
468.501	222.62
469.278	246.62
470.055	280.62
470.831	312.62
471.608	350.62
472.385	387.62
473.161	430.62
473.938	488.62
474.714	539.62
475.49	602.62
476.266	669.62
477.043	741.62
477.819	834.62
478.595	917.62
479.371	1008.62
480.146	1136.62
480.922	1273.62
481.698	1407.62
482.473	1543.62
483.249	1721.62
484.024	1896.62
484.8	2104.62
485.575	2326.62
486.35	2592.62
487.126	2847.62
487.901	3196.62
488.676	3524.62
489.451	3912.62
490.225	4297.62
491	4761.62
491.775	5223.62
492.55	5783.62
493.324	6370.62
494.099	6982.62
494.873	7628.62
495.647	8375.62
496.422	9119.62
497.196	9892.62
497.97	10680.62
498.744	11474.62
499.518	12314.62
500.292	13094.62
501.066	13874.62
501.839	14618.62
502.613	15344.62
503.387	15887.62
504.16	16444.62
504.934	16872.62
505.707	17124.62
506.48	17331.62
507.253	17432.62
508.027	17420.62
508.8	17166.62
509.573	16910.62
510.346	16566.62
511.118	16169.62
511.891	15606.62
512.664	15002.62
513.437	14428.62
514.209	13841.62
514.982	13221.62
515.754	12665.62
516.526	12047.62
517.298	11508.62
518.071	10962.62
518.843	10458.62
519.615	10026.62
520.387	9655.62
521.159	9234.62
521.93	8895.62
522.702	8525.62
523.474	8186.62
524.245	7873.62
525.017	7521.62
525.788	7262.62
526.56	7003.62
527.331	6648.62
528.102	6342.62
528.873	6055.62
529.644	5772.62
530.415	5493.62
531.186	5219.62
531.957	4942.62
532.728	4671.62
533.498	4407.62
534.269	4162.62
535.039	3941.62
535.81	3718.62
536.58	3504.62
537.351	3296.62
538.121	3128.62
538.891	2960.62
539.661	2784.62
540.431	2650.62
541.201	2485.62
541.971	2354.62
542.741	2253.62
543.51	2117.62
544.28	2023.62
545.05	1902.62
545.819	1829.62
546.588	1729.62
547.358	1636.62
548.127	1565.62
548.896	1496.62
549.665	1414.62
550.434	1340.62
551.203	1270.62
551.972	1202.62
552.741	1149.62
553.51	1076.62
554.278	1021.62
555.047	954.62
555.815	909.62
556.584	862.62
557.352	793.62
558.121	753.62
558.889	718.62
559.657	667.62
560.425	634.62
561.193	592.62
561.961	558.62
562.729	529.62
563.496	507.62
564.264	474.62
565.032	452.62
565.799	420.62
566.567	391.62
567.334	372.62
568.101	349.62
568.869	331.62
569.636	315.62
570.403	291.62
571.17	289.62
571.937	261.62
572.704	246.62
573.471	236.62
574.237	227.62
575.004	208.62
575.771	196.62
576.537	186.62
577.303	171.62
578.07	161.62
578.836	153.62
579.602	144.62
580.368	134.62
581.134	129.62
581.9	120.62
582.666	124.62
583.432	107.62
584.198	106.62
584.964	97.62
585.729	96.62
586.495	89.62
587.26	80.62
588.025	75.62
588.791	77.62
589.556	71.62
590.321	65.62
591.086	62.62
591.851	58.62
592.616	61.62
593.381	52.62
594.146	52.62
594.911	47.62
595.675	45.62
596.44	42.62
597.204	43.62
597.969	39.62
598.733	40.62
599.497	37.62
600.261	36.62
601.025	35.62
601.79	30.62
602.553	31.62
603.317	30.62
604.081	27.62
604.845	25.62
605.609	24.62
606.372	21.62
607.136	22.62
607.899	24.62
608.662	23.62
609.426	21.62
610.189	20.62
610.952	17.62
611.715	16.62
612.478	17.62
613.241	16.62
614.004	15.62
614.767	14.62
615.529	13.62
616.292	13.62
617.055	13.62
617.817	14.62
618.579	12.62
619.342	10.62
620.104	12.62
620.866	11.62
621.628	12.62
622.39	11.62
623.152	14.62
623.914	10.62
624.676	10.62
625.438	11.62
626.199	10.62
626.961	9.62
627.722	7.62
628.484	7.62
629.245	7.62
630.006	5.62
630.768	7.62
631.529	9.62
632.29	8.62
633.051	5.62
633.812	8.62
634.573	7.62
635.333	5.62
636.094	9.62
636.855	7.62
637.615	9.62
638.376	6.62
639.136	6.62
639.896	6.62
640.657	6.62
641.417	7.62
642.177	5.62
642.937	6.62
643.697	6.62
644.457	4.62
645.216	4.62
645.976	4.62
646.736	4.62
647.495	4.62
648.255	5.62
649.014	3.62
649.774	3.62
650.533	3.62
651.292	3.62
652.051	5.62
652.81	2.62
653.569	3.62
654.328	6.62
655.087	3.62
655.846	2.62
656.604	4.62
657.363	3.62
658.121	3.62
658.88	4.62
659.638	4.62
660.397	2.62
661.155	2.62
661.913	2.62
662.671	3.62
663.429	0.62
664.187	1.62
664.945	4.62
665.703	2.62
666.46	2.62
667.218	2.62
667.976	3.62
668.733	4.62
669.49	3.62
670.248	5.62
671.005	3.62
671.762	2.62
672.519	3.62
673.276	2.62
674.033	2.62
674.79	2.62
675.547	3.62
676.304	3.62
677.06	4.62
677.817	4.62
678.574	2.62
679.33	2.62
680.086	1.62
680.843	4.62
681.599	3.62
682.355	3.62
683.111	2.62
683.867	4.62
684.623	2.62
685.379	2.62
686.135	1.62
686.89	1.62
687.646	1.62
688.402	3.62
689.157	2.62
689.912	2.62
690.668	5.62
691.423	2.62
692.178	-1.38
692.933	3.62
693.688	2.62
694.443	2.62
695.198	1.62
695.953	3.62
696.708	0.62
697.462	2.62
698.217	3.62
698.972	3.62
699.726	2.62
700.48	2.62
701.235	2.62
701.989	1.62
702.743	2.62
703.497	2.62
704.251	1.62
705.005	2.62
705.759	2.62
706.513	1.62
707.266	3.62
708.02	1.62
708.774	1.62
709.527	1.62
710.28	2.62
711.034	3.62
711.787	3.62
712.54	2.62
713.293	1.62
714.046	2.62
714.799	0.62
715.552	2.62
716.305	4.62
717.058	1.62
717.81	3.62
718.563	1.62
719.315	2.62
720.068	2.62
720.82	1.62
721.573	2.62
722.325	1.62
723.077	2.62
723.829	2.62
724.581	2.62
725.333	3.62
726.085	3.62
726.836	2.62
727.588	2.62
728.34	3.62
729.091	1.62
729.843	2.62
730.594	4.62
731.346	5.62
732.097	1.62
732.848	1.62
733.599	1.62
734.35	2.62
735.101	4.62
735.852	4.62
736.603	1.62
737.354	4.62
738.104	3.62
738.855	3.62
739.605	2.62
740.356	3.62
741.106	2.62
741.856	4.62
742.607	2.62
743.357	1.62
744.107	2.62
744.857	3.62
745.607	3.62
746.357	5.62
747.106	1.62
747.856	4.62
748.606	2.62
749.355	2.62
750.105	4.62
750.854	2.62
751.603	1.62
752.353	3.62
753.102	5.62
753.851	3.62
754.6	5.62
755.349	3.62
756.098	6.62
756.847	4.62
757.595	2.62
758.344	6.62
759.093	4.62
759.841	4.62
760.589	1.62
761.338	1.62
762.086	3.62
762.834	4.62
763.582	4.62
764.331	5.62
765.079	2.62
765.826	1.62
766.574	3.62
767.322	3.62
768.07	4.62
768.817	5.62
769.565	4.62
770.312	6.62
771.06	5.62
771.807	3.62
772.554	4.62
773.302	2.62
774.049	9.62
774.796	5.62
775.543	5.62
776.29	6.62
777.036	4.62
777.783	7.62
778.53	3.62
779.276	4.62
780.023	6.62
780.769	5.62
781.516	5.62
782.262	7.62
783.008	5.62
783.754	7.62
784.5	5.62
785.246	5.62
785.992	6.62
786.738	7.62
787.484	6.62
788.23	6.62
788.975	7.62
789.721	4.62
790.466	4.62
791.212	6.62
791.957	7.62
792.702	5.62
793.447	6.62
794.193	3.62
794.938	4.62
795.683	5.62
796.427	5.62
797.172	7.62
797.917	4.62
798.662	5.62
799.406	6.62
800.151	5.62
800.895	6.62
801.64	5.62
802.384	5.62
803.128	4.62
803.872	3.62
804.616	6.62
805.36	4.62
806.104	4.62
806.848	3.62
807.592	3.62
808.336	4.62
809.079	4.62
809.823	4.62
810.566	5.62
811.31	5.62
812.053	0.62
812.796	2.62
813.539	3.62
814.283	5.62
815.026	4.62
815.769	4.62
816.511	2.62
817.254	3.62
817.997	4.62
818.74	2.62
819.482	3.62
820.225	4.62
820.967	1.62
821.71	2.62
822.452	2.62
823.194	0.62
823.936	3.62
824.678	4.62
825.42	3.62
826.162	2.62
826.904	3.62
827.646	1.62
828.388	0.62
829.129	3.62
829.871	3.62
830.612	2.62
831.354	1.62
832.095	4.62
832.836	1.62
833.577	4.62
834.319	4.62
835.06	3.62
835.801	2.62
836.542	3.62
837.282	1.62
838.023	3.62
838.764	4.62
839.504	2.62
840.245	4.62
840.985	1.62
841.726	3.62
842.466	4.62
843.206	1.62
843.946	4.62
844.687	2.62
845.427	2.62
846.166	2.62
846.906	1.62
847.646	-0.38
848.386	2.62
849.125	3.62
849.865	4.62
850.605	2.62
851.344	4.62
852.083	2.62
852.823	4.62
853.562	0.62
854.301	-0.38
855.04	4.62
855.779	2.62
856.518	2.62
857.257	0.62
857.995	1.62
858.734	1.62
859.473	1.62
860.211	2.62
860.95	0.62
861.688	4.62
862.426	2.62
863.165	3.62
863.903	1.62
864.641	0.62
865.379	2.62
866.117	0.62
866.855	0.62
867.593	2.62
868.33	1.62
869.068	2.62
869.806	2.62
870.543	2.62
871.28	-1.38
872.018	0.62
872.755	-2.38
873.492	-0.38
874.229	1.62
874.967	2.62
875.703	0.62
876.44	0.62
877.177	1.62
877.914	3.62
878.651	0.62
879.387	3.62
880.124	1.62
880.86	2.62
881.597	0.62
882.333	1.62
883.069	3.62
883.806	0.62
884.542	1.62
885.278	2.62
886.014	1.62
886.749	-1.38
887.485	0.62
888.221	1.62
888.957	-0.38
889.692	1.62
890.428	0.62
891.163	0.62
891.899	1.62
892.634	0.62
893.369	-1.38
894.104	1.62
894.839	2.62
895.574	1.62
896.309	3.62
897.044	1.62
897.779	0.62
898.514	2.62
899.248	0.62
899.983	1.62
900.717	0.62
901.452	1.62
902.186	-0.38
902.92	1.62
903.654	0.62
904.389	1.62
905.123	1.62
905.857	2.62
906.59	1.62
907.324	1.62
908.058	-0.38
908.792	1.62
909.525	0.62
910.259	0.62
910.992	-0.38
911.726	0.62
912.459	0.62
913.192	1.62
913.925	-1.38
914.658	0.62
915.391	1.62
916.124	0.62
916.857	1.62
917.59	0.62
918.323	1.62
919.055	1.62
919.788	-0.38
920.521	1.62
921.253	-2.38
921.985	2.62
922.718	1.62
923.45	-0.38
924.182	0.62
924.914	-0.38
925.646	0.62
926.378	1.62
927.11	-1.38
927.841	2.62
928.573	1.62
929.305	-0.38
930.036	1.62
930.768	1.62
931.499	1.62
932.23	1.62
932.962	0.62
933.693	-0.38
934.424	1.62
935.155	0.62
935.886	0.62
936.617	-2.38
937.348	0.62
938.078	-0.38
938.809	-0.38
939.54	0.62
940.27	-1.38
941.001	3.62
941.731	1.62
942.461	-1.38
943.191	-0.38
943.922	-3.38
944.652	-0.38
945.382	0.62
946.112	-0.38
946.841	1.62
947.571	-1.38
948.301	0.62
949.031	0.62
949.76	1.62
950.49	-1.38
951.219	1.62
951.948	1.62
952.678	-0.38
953.407	1.62
954.136	2.62
954.865	1.62
955.594	-0.38
956.323	1.62
957.052	2.62
957.78	0.62
958.509	-0.38
959.238	-1.38
959.966	3.62
960.695	2.62
961.423	-1.38
962.151	1.62
962.88	1.62
963.608	0.62
964.336	-1.38
965.064	0.62
965.792	0.62
966.52	1.62
967.247	2.62
967.975	0.62
968.703	-0.38
969.43	-1.38
970.158	2.62
970.885	1.62
971.613	-1.38
972.34	-1.38
973.067	1.62
973.794	2.62
974.521	0.62
975.248	0.62
975.975	0.62
976.702	1.62
977.429	-0.38
978.156	-1.38
978.882	1.62
979.609	0.62
980.335	0.62
981.062	1.62
981.788	-1.38
982.514	-0.38
983.24	-1.38
983.967	0.62
984.693	-0.38
985.419	-1.38
986.144	2.62
986.87	-1.38
987.596	-0.38
988.322	-1.38
989.047	2.62
989.773	0.62
990.498	0.62
991.224	0.62
991.949	0.62
992.674	1.62
993.399	-1.38
994.124	0.62
994.849	2.62
995.574	-0.38
996.299	-1.38
997.024	1.62
997.749	3.62
998.473	0.62
999.198	0.62
999.922	0.62
1000.647	0.62
1001.371	3.62
1002.095	-0.38
1002.82	-1.38
1003.544	2.62
1004.268	-3.38
1004.992	-0.38
1005.716	-2.38
1006.439	0.62
1007.163	0.62
1007.887	-0.38
1008.611	1.62
1009.334	1.62
1010.058	1.62
1010.781	2.62
1011.504	-0.38
1012.228	0.62
1012.951	-3.38
1013.674	-0.38
1014.397	-0.38
1015.12	-0.38
