节点500_145_QEPB04081__218__11-32-27-494.txt的数据

Date: Wed Nov 12 11:32:27 CST 2025
User: PC
Spectrometer: QEPB0408
触发模式: 0
积分时间 (秒): 1.000000E-2
Scans to average: 1
启用暗噪声校正: true
启用非线性校正: false
滑动平均宽度: 0
X轴模式: Wavelengths
Number of Pixels in Spectrum: 1044
>>>>>Begin Spectral Data<<<<<
220.843	1.38
221.644	-1.62
222.444	-1.62
223.244	1.38
224.045	0.38
224.845	0.38
225.645	1.38
226.445	-1.62
227.245	1.38
228.045	-0.62
228.845	1.38
229.645	-1.62
230.444	0.38
231.244	0.38
232.043	1.38
232.843	0.38
233.642	1.38
234.442	2.38
235.241	0.38
236.04	1.38
236.839	1.38
237.638	-0.62
238.437	3.38
239.236	-0.62
240.035	0.38
240.833	1.38
241.632	0.38
242.43	1.38
243.229	1.38
244.027	1.38
244.826	1.38
245.624	0.38
246.422	1.38
247.22	0.38
248.018	2.38
248.816	3.38
249.614	0.38
250.412	2.38
251.21	2.38
252.007	3.38
252.805	2.38
253.602	5.38
254.4	3.38
255.197	2.38
255.994	2.38
256.791	3.38
257.589	2.38
258.386	5.38
259.183	2.38
259.979	5.38
260.776	4.38
261.573	2.38
262.37	6.38
263.166	3.38
263.963	5.38
264.759	6.38
265.556	5.38
266.352	5.38
267.148	6.38
267.944	7.38
268.74	3.38
269.536	6.38
270.332	6.38
271.128	7.38
271.924	9.38
272.719	8.38
273.515	9.38
274.311	9.38
275.106	8.38
275.901	8.38
276.697	11.38
277.492	7.38
278.287	9.38
279.082	11.38
279.877	8.38
280.672	12.38
281.467	11.38
282.262	9.38
283.056	11.38
283.851	11.38
284.646	13.38
285.44	10.38
286.234	10.38
287.029	12.38
287.823	11.38
288.617	12.38
289.411	10.38
290.205	10.38
290.999	10.38
291.793	10.38
292.587	12.38
293.381	11.38
294.174	12.38
294.968	9.38
295.761	11.38
296.555	10.38
297.348	10.38
298.141	11.38
298.935	9.38
299.728	11.38
300.521	7.38
301.314	7.38
302.107	7.38
302.899	7.38
303.692	9.38
304.485	7.38
305.277	7.38
306.07	8.38
306.862	9.38
307.655	7.38
308.447	8.38
309.239	9.38
310.031	8.38
310.823	5.38
311.615	8.38
312.407	5.38
313.199	9.38
313.991	8.38
314.783	7.38
315.574	4.38
316.366	6.38
317.157	4.38
317.949	4.38
318.74	5.38
319.531	6.38
320.322	4.38
321.113	5.38
321.904	7.38
322.695	4.38
323.486	2.38
324.277	5.38
325.068	1.38
325.858	4.38
326.649	5.38
327.439	5.38
328.23	4.38
329.02	5.38
329.81	3.38
330.6	2.38
331.391	5.38
332.181	3.38
332.971	4.38
333.76	5.38
334.55	4.38
335.34	2.38
336.13	5.38
336.919	3.38
337.709	3.38
338.498	3.38
339.287	4.38
340.077	2.38
340.866	4.38
341.655	5.38
342.444	4.38
343.233	5.38
344.022	5.38
344.811	3.38
345.6	2.38
346.388	6.38
347.177	3.38
347.965	5.38
348.754	2.38
349.542	4.38
350.33	4.38
351.119	3.38
351.907	1.38
352.695	3.38
353.483	2.38
354.271	4.38
355.059	1.38
355.846	2.38
356.634	2.38
357.422	4.38
358.209	1.38
358.997	4.38
359.784	3.38
360.571	2.38
361.359	4.38
362.146	4.38
362.933	2.38
363.72	3.38
364.507	0.38
365.294	3.38
366.081	3.38
366.867	3.38
367.654	1.38
368.44	0.38
369.227	1.38
370.013	3.38
370.8	3.38
371.586	2.38
372.372	2.38
373.158	3.38
373.944	3.38
374.73	1.38
375.516	4.38
376.302	2.38
377.088	3.38
377.873	4.38
378.659	4.38
379.445	5.38
380.23	3.38
381.015	1.38
381.801	4.38
382.586	1.38
383.371	4.38
384.156	2.38
384.941	2.38
385.726	3.38
386.511	0.38
387.296	2.38
388.08	1.38
388.865	4.38
389.649	1.38
390.434	2.38
391.218	2.38
392.003	2.38
392.787	3.38
393.571	3.38
394.355	5.38
395.139	3.38
395.923	3.38
396.707	4.38
397.491	3.38
398.274	3.38
399.058	3.38
399.842	4.38
400.625	3.38
401.408	3.38
402.192	4.38
402.975	2.38
403.758	3.38
404.541	4.38
405.324	1.38
406.107	1.38
406.89	3.38
407.673	4.38
408.456	3.38
409.238	2.38
410.021	3.38
410.803	4.38
411.586	5.38
412.368	3.38
413.151	7.38
413.933	5.38
414.715	4.38
415.497	4.38
416.279	2.38
417.061	5.38
417.843	3.38
418.624	5.38
419.406	6.38
420.188	6.38
420.969	3.38
421.751	3.38
422.532	4.38
423.313	6.38
424.095	4.38
424.876	4.38
425.657	6.38
426.438	6.38
427.219	7.38
428	7.38
428.78	7.38
429.561	6.38
430.342	6.38
431.122	7.38
431.903	7.38
432.683	8.38
433.464	7.38
434.244	8.38
435.024	10.38
435.804	10.38
436.584	11.38
437.364	9.38
438.144	13.38
438.924	10.38
439.704	9.38
440.483	12.38
441.263	11.38
442.042	12.38
442.822	11.38
443.601	12.38
444.38	15.38
445.16	15.38
445.939	14.38
446.718	18.38
447.497	21.38
448.276	19.38
449.054	23.38
449.833	22.38
450.612	23.38
451.391	26.38
452.169	27.38
452.948	29.38
453.726	30.38
454.504	38.38
455.282	40.38
456.061	43.38
456.839	48.38
457.617	54.38
458.395	59.38
459.172	66.38
459.95	72.38
460.728	80.38
461.506	91.38
462.283	98.38
463.061	107.38
463.838	125.38
464.615	130.38
465.393	154.38
466.17	174.38
466.947	187.38
467.724	211.38
468.501	236.38
469.278	264.38
470.055	294.38
470.831	326.38
471.608	368.38
472.385	408.38
473.161	449.38
473.938	498.38
474.714	554.38
475.49	615.38
476.266	681.38
477.043	764.38
477.819	847.38
478.595	941.38
479.371	1034.38
480.146	1138.38
480.922	1283.38
481.698	1395.38
482.473	1549.38
483.249	1709.38
484.024	1895.38
484.8	2091.38
485.575	2300.38
486.35	2554.38
487.126	2820.38
487.901	3112.38
488.676	3434.38
489.451	3791.38
490.225	4137.38
491	4569.38
491.775	5052.38
492.55	5511.38
493.324	6079.38
494.099	6628.38
494.873	7270.38
495.647	7933.38
496.422	8623.38
497.196	9331.38
497.97	10070.38
498.744	10865.38
499.518	11609.38
500.292	12355.38
501.066	13070.38
501.839	13848.38
502.613	14487.38
503.387	15149.38
504.16	15661.38
504.934	16128.38
505.707	16442.38
506.48	16720.38
507.253	16852.38
508.027	16849.38
508.8	16735.38
509.573	16530.38
510.346	16281.38
511.118	15926.38
511.891	15451.38
512.664	14973.38
513.437	14407.38
514.209	13859.38
514.982	13317.38
515.754	12752.38
516.526	12192.38
517.298	11611.38
518.071	11095.38
518.843	10607.38
519.615	10177.38
520.387	9729.38
521.159	9377.38
521.93	8957.38
522.702	8589.38
523.474	8257.38
524.245	7986.38
525.017	7631.38
525.788	7342.38
526.56	7028.38
527.331	6756.38
528.102	6424.38
528.873	6150.38
529.644	5896.38
530.415	5610.38
531.186	5320.38
531.957	5054.38
532.728	4788.38
533.498	4522.38
534.269	4293.38
535.039	4054.38
535.81	3816.38
536.58	3610.38
537.351	3387.38
538.121	3195.38
538.891	3039.38
539.661	2860.38
540.431	2706.38
541.201	2554.38
541.971	2435.38
542.741	2298.38
543.51	2177.38
544.28	2070.38
545.05	1963.38
545.819	1865.38
546.588	1784.38
547.358	1707.38
548.127	1620.38
548.896	1534.38
549.665	1446.38
550.434	1385.38
551.203	1309.38
551.972	1239.38
552.741	1184.38
553.51	1118.38
554.278	1052.38
555.047	996.38
555.815	926.38
556.584	886.38
557.352	836.38
558.121	783.38
558.889	738.38
559.657	695.38
560.425	654.38
561.193	613.38
561.961	576.38
562.729	545.38
563.496	512.38
564.264	487.38
565.032	466.38
565.799	433.38
566.567	421.38
567.334	393.38
568.101	364.38
568.869	347.38
569.636	326.38
570.403	311.38
571.17	289.38
571.937	281.38
572.704	263.38
573.471	243.38
574.237	227.38
575.004	219.38
575.771	202.38
576.537	192.38
577.303	178.38
578.07	168.38
578.836	158.38
579.602	153.38
580.368	139.38
581.134	138.38
581.9	130.38
582.666	121.38
583.432	114.38
584.198	116.38
584.964	100.38
585.729	96.38
586.495	89.38
587.26	84.38
588.025	78.38
588.791	78.38
589.556	73.38
590.321	67.38
591.086	64.38
591.851	65.38
592.616	59.38
593.381	56.38
594.146	56.38
594.911	51.38
595.675	49.38
596.44	45.38
597.204	41.38
597.969	44.38
598.733	41.38
599.497	37.38
600.261	37.38
601.025	34.38
601.79	32.38
602.553	32.38
603.317	28.38
604.081	26.38
604.845	23.38
605.609	28.38
606.372	26.38
607.136	26.38
607.899	22.38
608.662	22.38
609.426	23.38
610.189	19.38
610.952	16.38
611.715	17.38
612.478	20.38
613.241	17.38
614.004	17.38
614.767	15.38
615.529	17.38
616.292	17.38
617.055	16.38
617.817	16.38
618.579	14.38
619.342	11.38
620.104	13.38
620.866	12.38
621.628	12.38
622.39	9.38
623.152	10.38
623.914	11.38
624.676	9.38
625.438	11.38
626.199	8.38
626.961	10.38
627.722	10.38
628.484	9.38
629.245	6.38
630.006	7.38
630.768	9.38
631.529	5.38
632.29	9.38
633.051	8.38
633.812	5.38
634.573	8.38
635.333	6.38
636.094	7.38
636.855	5.38
637.615	8.38
638.376	6.38
639.136	2.38
639.896	4.38
640.657	5.38
641.417	4.38
642.177	5.38
642.937	5.38
643.697	6.38
644.457	5.38
645.216	4.38
645.976	4.38
646.736	3.38
647.495	3.38
648.255	3.38
649.014	5.38
649.774	5.38
650.533	3.38
651.292	2.38
652.051	5.38
652.81	2.38
653.569	5.38
654.328	4.38
655.087	2.38
655.846	2.38
656.604	2.38
657.363	4.38
658.121	2.38
658.88	4.38
659.638	4.38
660.397	2.38
661.155	3.38
661.913	3.38
662.671	4.38
663.429	5.38
664.187	2.38
664.945	3.38
665.703	2.38
666.46	4.38
667.218	1.38
667.976	2.38
668.733	2.38
669.49	0.38
670.248	1.38
671.005	4.38
671.762	2.38
672.519	3.38
673.276	1.38
674.033	3.38
674.79	2.38
675.547	3.38
676.304	0.38
677.06	2.38
677.817	2.38
678.574	3.38
679.33	3.38
680.086	2.38
680.843	2.38
681.599	1.38
682.355	2.38
683.111	0.38
683.867	2.38
684.623	2.38
685.379	0.38
686.135	4.38
686.89	3.38
687.646	2.38
688.402	1.38
689.157	3.38
689.912	0.38
690.668	1.38
691.423	2.38
692.178	1.38
692.933	3.38
693.688	1.38
694.443	2.38
695.198	1.38
695.953	2.38
696.708	2.38
697.462	2.38
698.217	4.38
698.972	0.38
699.726	4.38
700.48	3.38
701.235	1.38
701.989	3.38
702.743	1.38
703.497	0.38
704.251	2.38
705.005	0.38
705.759	1.38
706.513	2.38
707.266	2.38
708.02	1.38
708.774	4.38
709.527	2.38
710.28	1.38
711.034	2.38
711.787	1.38
712.54	2.38
713.293	1.38
714.046	1.38
714.799	0.38
715.552	1.38
716.305	1.38
717.058	-1.62
717.81	4.38
718.563	1.38
719.315	3.38
720.068	0.38
720.82	2.38
721.573	1.38
722.325	-0.62
723.077	3.38
723.829	1.38
724.581	5.38
725.333	0.38
726.085	2.38
726.836	3.38
727.588	1.38
728.34	4.38
729.091	3.38
729.843	3.38
730.594	2.38
731.346	3.38
732.097	1.38
732.848	2.38
733.599	3.38
734.35	2.38
735.101	4.38
735.852	1.38
736.603	2.38
737.354	2.38
738.104	0.38
738.855	0.38
739.605	1.38
740.356	3.38
741.106	1.38
741.856	2.38
742.607	4.38
743.357	0.38
744.107	2.38
744.857	2.38
745.607	3.38
746.357	2.38
747.106	1.38
747.856	4.38
748.606	3.38
749.355	2.38
750.105	2.38
750.854	0.38
751.603	4.38
752.353	1.38
753.102	2.38
753.851	0.38
754.6	2.38
755.349	2.38
756.098	3.38
756.847	4.38
757.595	3.38
758.344	7.38
759.093	3.38
759.841	4.38
760.589	2.38
761.338	1.38
762.086	4.38
762.834	3.38
763.582	6.38
764.331	2.38
765.079	6.38
765.826	3.38
766.574	6.38
767.322	2.38
768.07	4.38
768.817	6.38
769.565	2.38
770.312	5.38
771.06	1.38
771.807	3.38
772.554	5.38
773.302	5.38
774.049	7.38
774.796	3.38
775.543	6.38
776.29	3.38
777.036	4.38
777.783	7.38
778.53	5.38
779.276	4.38
780.023	3.38
780.769	4.38
781.516	6.38
782.262	5.38
783.008	6.38
783.754	5.38
784.5	7.38
785.246	5.38
785.992	5.38
786.738	7.38
787.484	6.38
788.23	5.38
788.975	3.38
789.721	6.38
790.466	4.38
791.212	7.38
791.957	3.38
792.702	6.38
793.447	1.38
794.193	3.38
794.938	4.38
795.683	2.38
796.427	7.38
797.172	3.38
797.917	4.38
798.662	4.38
799.406	2.38
800.151	6.38
800.895	4.38
801.64	6.38
802.384	4.38
803.128	2.38
803.872	6.38
804.616	3.38
805.36	5.38
806.104	3.38
806.848	3.38
807.592	2.38
808.336	5.38
809.079	5.38
809.823	2.38
810.566	5.38
811.31	2.38
812.053	5.38
812.796	4.38
813.539	3.38
814.283	4.38
815.026	3.38
815.769	5.38
816.511	3.38
817.254	3.38
817.997	2.38
818.74	3.38
819.482	1.38
820.225	2.38
820.967	5.38
821.71	3.38
822.452	2.38
823.194	2.38
823.936	3.38
824.678	3.38
825.42	3.38
826.162	3.38
826.904	1.38
827.646	2.38
828.388	4.38
829.129	5.38
829.871	4.38
830.612	0.38
831.354	4.38
832.095	2.38
832.836	2.38
833.577	2.38
834.319	3.38
835.06	1.38
835.801	1.38
836.542	3.38
837.282	2.38
838.023	1.38
838.764	3.38
839.504	2.38
840.245	3.38
840.985	4.38
841.726	0.38
842.466	3.38
843.206	2.38
843.946	2.38
844.687	3.38
845.427	0.38
846.166	2.38
846.906	-0.62
847.646	2.38
848.386	1.38
849.125	1.38
849.865	2.38
850.605	2.38
851.344	1.38
852.083	2.38
852.823	1.38
853.562	1.38
854.301	2.38
855.04	1.38
855.779	2.38
856.518	2.38
857.257	2.38
857.995	2.38
858.734	1.38
859.473	0.38
860.211	1.38
860.95	3.38
861.688	3.38
862.426	-0.62
863.165	1.38
863.903	2.38
864.641	1.38
865.379	-0.62
866.117	2.38
866.855	0.38
867.593	1.38
868.33	3.38
869.068	-1.62
869.806	1.38
870.543	2.38
871.28	2.38
872.018	1.38
872.755	1.38
873.492	0.38
874.229	1.38
874.967	-0.62
875.703	0.38
876.44	2.38
877.177	-1.62
877.914	0.38
878.651	1.38
879.387	2.38
880.124	1.38
880.86	1.38
881.597	0.38
882.333	-0.62
883.069	0.38
883.806	3.38
884.542	-1.62
885.278	0.38
886.014	1.38
886.749	0.38
887.485	2.38
888.221	-1.62
888.957	0.38
889.692	0.38
890.428	-1.62
891.163	2.38
891.899	0.38
892.634	-0.62
893.369	1.38
894.104	1.38
894.839	1.38
895.574	2.38
896.309	1.38
897.044	1.38
897.779	0.38
898.514	-1.62
899.248	1.38
899.983	-1.62
900.717	-0.62
901.452	-0.62
902.186	-0.62
902.92	1.38
903.654	0.38
904.389	-0.62
905.123	0.38
905.857	2.38
906.59	2.38
907.324	1.38
908.058	1.38
908.792	-2.62
909.525	2.38
910.259	-0.62
910.992	1.38
911.726	2.38
912.459	0.38
913.192	0.38
913.925	0.38
914.658	0.38
915.391	-0.62
916.124	2.38
916.857	0.38
917.59	0.38
918.323	-1.62
919.055	-1.62
919.788	0.38
920.521	0.38
921.253	-0.62
921.985	-1.62
922.718	0.38
923.45	0.38
924.182	0.38
924.914	1.38
925.646	1.38
926.378	0.38
927.11	0.38
927.841	-1.62
928.573	0.38
929.305	0.38
930.036	2.38
930.768	-0.62
931.499	0.38
932.23	1.38
932.962	0.38
933.693	0.38
934.424	-0.62
935.155	-0.62
935.886	0.38
936.617	-1.62
937.348	0.38
938.078	-0.62
938.809	0.38
939.54	-0.62
940.27	-0.62
941.001	0.38
941.731	-1.62
942.461	1.38
943.191	-0.62
943.922	-1.62
944.652	1.38
945.382	2.38
946.112	0.38
946.841	1.38
947.571	0.38
948.301	-0.62
949.031	3.38
949.76	1.38
950.49	2.38
951.219	0.38
951.948	-1.62
952.678	-1.62
953.407	0.38
954.136	0.38
954.865	3.38
955.594	0.38
956.323	1.38
957.052	1.38
957.78	2.38
958.509	-1.62
959.238	1.38
959.966	-0.62
960.695	1.38
961.423	0.38
962.151	-1.62
962.88	1.38
963.608	-1.62
964.336	2.38
965.064	0.38
965.792	1.38
966.52	1.38
967.247	-1.62
967.975	0.38
968.703	0.38
969.43	0.38
970.158	0.38
970.885	0.38
971.613	-0.62
972.34	0.38
973.067	0.38
973.794	2.38
974.521	0.38
975.248	1.38
975.975	0.38
976.702	2.38
977.429	-0.62
978.156	1.38
978.882	-0.62
979.609	1.38
980.335	1.38
981.062	-4.62
981.788	1.38
982.514	0.38
983.24	2.38
983.967	1.38
984.693	0.38
985.419	2.38
986.144	1.38
986.87	1.38
987.596	-1.62
988.322	2.38
989.047	-1.62
989.773	0.38
990.498	0.38
991.224	0.38
991.949	-1.62
992.674	-1.62
993.399	1.38
994.124	0.38
994.849	1.38
995.574	-0.62
996.299	-0.62
997.024	-0.62
997.749	0.38
998.473	-1.62
999.198	0.38
999.922	0.38
1000.647	1.38
1001.371	1.38
1002.095	-0.62
1002.82	-1.62
1003.544	0.38
1004.268	-0.62
1004.992	-1.62
1005.716	-0.62
1006.439	-0.62
1007.163	-0.62
1007.887	-1.62
1008.611	0.38
1009.334	1.38
1010.058	0.38
1010.781	0.38
1011.504	2.38
1012.228	0.38
1012.951	1.38
1013.674	-0.62
1014.397	0.38
1015.12	-0.62
