节点500_145_QEPB04081__69__11-30-03-691.txt的数据

Date: Wed Nov 12 11:30:03 CST 2025
User: PC
Spectrometer: QEPB0408
触发模式: 0
积分时间 (秒): 1.000000E-2
Scans to average: 1
启用暗噪声校正: true
启用非线性校正: false
滑动平均宽度: 0
X轴模式: Wavelengths
Number of Pixels in Spectrum: 1044
>>>>>Begin Spectral Data<<<<<
220.843	1.25
221.644	-0.75
222.444	-0.75
223.244	2.25
224.045	1.25
224.845	-0.75
225.645	0.25
226.445	-0.75
227.245	-1.75
228.045	-1.75
228.845	0.25
229.645	0.25
230.444	1.25
231.244	1.25
232.043	1.25
232.843	-1.75
233.642	4.25
234.442	2.25
235.241	0.25
236.04	1.25
236.839	1.25
237.638	1.25
238.437	-1.75
239.236	1.25
240.035	2.25
240.833	4.25
241.632	1.25
242.43	0.25
243.229	2.25
244.027	2.25
244.826	2.25
245.624	2.25
246.422	0.25
247.22	2.25
248.018	2.25
248.816	2.25
249.614	5.25
250.412	2.25
251.21	0.25
252.007	3.25
252.805	3.25
253.602	1.25
254.4	3.25
255.197	3.25
255.994	4.25
256.791	5.25
257.589	3.25
258.386	4.25
259.183	3.25
259.979	5.25
260.776	5.25
261.573	4.25
262.37	4.25
263.166	6.25
263.963	6.25
264.759	5.25
265.556	7.25
266.352	8.25
267.148	7.25
267.944	7.25
268.74	8.25
269.536	6.25
270.332	5.25
271.128	8.25
271.924	8.25
272.719	9.25
273.515	11.25
274.311	11.25
275.106	9.25
275.901	10.25
276.697	10.25
277.492	10.25
278.287	12.25
279.082	9.25
279.877	9.25
280.672	9.25
281.467	12.25
282.262	12.25
283.056	12.25
283.851	12.25
284.646	13.25
285.44	13.25
286.234	13.25
287.029	12.25
287.823	13.25
288.617	13.25
289.411	10.25
290.205	10.25
290.999	11.25
291.793	10.25
292.587	13.25
293.381	10.25
294.174	13.25
294.968	11.25
295.761	7.25
296.555	9.25
297.348	7.25
298.141	7.25
298.935	10.25
299.728	8.25
300.521	8.25
301.314	9.25
302.107	10.25
302.899	10.25
303.692	6.25
304.485	8.25
305.277	9.25
306.07	9.25
306.862	9.25
307.655	10.25
308.447	7.25
309.239	9.25
310.031	6.25
310.823	7.25
311.615	7.25
312.407	7.25
313.199	6.25
313.991	9.25
314.783	6.25
315.574	7.25
316.366	8.25
317.157	4.25
317.949	7.25
318.74	7.25
319.531	9.25
320.322	4.25
321.113	4.25
321.904	4.25
322.695	2.25
323.486	5.25
324.277	5.25
325.068	4.25
325.858	5.25
326.649	5.25
327.439	5.25
328.23	4.25
329.02	4.25
329.81	5.25
330.6	4.25
331.391	2.25
332.181	5.25
332.971	5.25
333.76	3.25
334.55	3.25
335.34	3.25
336.13	5.25
336.919	4.25
337.709	3.25
338.498	5.25
339.287	2.25
340.077	5.25
340.866	2.25
341.655	3.25
342.444	3.25
343.233	4.25
344.022	3.25
344.811	7.25
345.6	2.25
346.388	5.25
347.177	4.25
347.965	4.25
348.754	2.25
349.542	3.25
350.33	3.25
351.119	2.25
351.907	3.25
352.695	1.25
353.483	3.25
354.271	3.25
355.059	4.25
355.846	2.25
356.634	4.25
357.422	1.25
358.209	-0.75
358.997	3.25
359.784	3.25
360.571	2.25
361.359	5.25
362.146	2.25
362.933	3.25
363.72	3.25
364.507	3.25
365.294	2.25
366.081	3.25
366.867	1.25
367.654	3.25
368.44	4.25
369.227	3.25
370.013	5.25
370.8	3.25
371.586	8.25
372.372	2.25
373.158	2.25
373.944	0.25
374.73	1.25
375.516	5.25
376.302	3.25
377.088	0.25
377.873	4.25
378.659	3.25
379.445	5.25
380.23	1.25
381.015	3.25
381.801	3.25
382.586	2.25
383.371	4.25
384.156	2.25
384.941	3.25
385.726	2.25
386.511	4.25
387.296	5.25
388.08	3.25
388.865	4.25
389.649	2.25
390.434	6.25
391.218	2.25
392.003	4.25
392.787	3.25
393.571	2.25
394.355	4.25
395.139	3.25
395.923	2.25
396.707	5.25
397.491	3.25
398.274	4.25
399.058	2.25
399.842	5.25
400.625	3.25
401.408	6.25
402.192	4.25
402.975	0.25
403.758	4.25
404.541	2.25
405.324	4.25
406.107	3.25
406.89	4.25
407.673	7.25
408.456	7.25
409.238	5.25
410.021	2.25
410.803	6.25
411.586	4.25
412.368	6.25
413.151	6.25
413.933	5.25
414.715	4.25
415.497	5.25
416.279	5.25
417.061	3.25
417.843	5.25
418.624	7.25
419.406	5.25
420.188	6.25
420.969	6.25
421.751	6.25
422.532	5.25
423.313	5.25
424.095	5.25
424.876	5.25
425.657	6.25
426.438	3.25
427.219	8.25
428	6.25
428.78	6.25
429.561	7.25
430.342	7.25
431.122	9.25
431.903	8.25
432.683	9.25
433.464	9.25
434.244	9.25
435.024	9.25
435.804	9.25
436.584	10.25
437.364	9.25
438.144	11.25
438.924	10.25
439.704	11.25
440.483	12.25
441.263	12.25
442.042	12.25
442.822	14.25
443.601	15.25
444.38	14.25
445.16	14.25
445.939	15.25
446.718	17.25
447.497	17.25
448.276	19.25
449.054	22.25
449.833	22.25
450.612	23.25
451.391	25.25
452.169	26.25
452.948	30.25
453.726	33.25
454.504	33.25
455.282	39.25
456.061	44.25
456.839	45.25
457.617	53.25
458.395	57.25
459.172	57.25
459.95	66.25
460.728	78.25
461.506	81.25
462.283	92.25
463.061	104.25
463.838	115.25
464.615	129.25
465.393	141.25
466.17	154.25
466.947	179.25
467.724	197.25
468.501	213.25
469.278	243.25
470.055	273.25
470.831	314.25
471.608	344.25
472.385	377.25
473.161	440.25
473.938	473.25
474.714	537.25
475.49	602.25
476.266	660.25
477.043	747.25
477.819	825.25
478.595	909.25
479.371	1007.25
480.146	1119.25
480.922	1256.25
481.698	1383.25
482.473	1547.25
483.249	1732.25
484.024	1896.25
484.8	2101.25
485.575	2327.25
486.35	2588.25
487.126	2881.25
487.901	3187.25
488.676	3520.25
489.451	3911.25
490.225	4329.25
491	4764.25
491.775	5247.25
492.55	5836.25
493.324	6412.25
494.099	7006.25
494.873	7660.25
495.647	8383.25
496.422	9158.25
497.196	9919.25
497.97	10709.25
498.744	11506.25
499.518	12332.25
500.292	13140.25
501.066	13924.25
501.839	14675.25
502.613	15328.25
503.387	15948.25
504.16	16511.25
504.934	16881.25
505.707	17161.25
506.48	17380.25
507.253	17487.25
508.027	17361.25
508.8	17268.25
509.573	16955.25
510.346	16645.25
511.118	16113.25
511.891	15587.25
512.664	15018.25
513.437	14397.25
514.209	13837.25
514.982	13224.25
515.754	12610.25
516.526	12090.25
517.298	11473.25
518.071	10980.25
518.843	10453.25
519.615	10044.25
520.387	9642.25
521.159	9251.25
521.93	8875.25
522.702	8493.25
523.474	8207.25
524.245	7844.25
525.017	7554.25
525.788	7263.25
526.56	6963.25
527.331	6670.25
528.102	6334.25
528.873	6076.25
529.644	5778.25
530.415	5471.25
531.186	5206.25
531.957	4939.25
532.728	4638.25
533.498	4408.25
534.269	4169.25
535.039	3899.25
535.81	3721.25
536.58	3522.25
537.351	3292.25
538.121	3099.25
538.891	2941.25
539.661	2782.25
540.431	2633.25
541.201	2490.25
541.971	2348.25
542.741	2231.25
543.51	2132.25
544.28	2014.25
545.05	1909.25
545.819	1817.25
546.588	1725.25
547.358	1640.25
548.127	1581.25
548.896	1499.25
549.665	1409.25
550.434	1328.25
551.203	1262.25
551.972	1206.25
552.741	1137.25
553.51	1066.25
554.278	1018.25
555.047	959.25
555.815	903.25
556.584	855.25
557.352	799.25
558.121	753.25
558.889	711.25
559.657	670.25
560.425	620.25
561.193	595.25
561.961	560.25
562.729	526.25
563.496	488.25
564.264	464.25
565.032	439.25
565.799	416.25
566.567	400.25
567.334	379.25
568.101	347.25
568.869	327.25
569.636	309.25
570.403	303.25
571.17	277.25
571.937	267.25
572.704	254.25
573.471	236.25
574.237	220.25
575.004	206.25
575.771	195.25
576.537	182.25
577.303	173.25
578.07	165.25
578.836	153.25
579.602	144.25
580.368	135.25
581.134	129.25
581.9	126.25
582.666	118.25
583.432	109.25
584.198	102.25
584.964	98.25
585.729	95.25
586.495	89.25
587.26	83.25
588.025	80.25
588.791	71.25
589.556	68.25
590.321	65.25
591.086	63.25
591.851	61.25
592.616	56.25
593.381	53.25
594.146	53.25
594.911	48.25
595.675	48.25
596.44	40.25
597.204	43.25
597.969	37.25
598.733	37.25
599.497	38.25
600.261	36.25
601.025	31.25
601.79	30.25
602.553	28.25
603.317	30.25
604.081	31.25
604.845	27.25
605.609	25.25
606.372	22.25
607.136	22.25
607.899	23.25
608.662	21.25
609.426	22.25
610.189	20.25
610.952	20.25
611.715	16.25
612.478	18.25
613.241	18.25
614.004	16.25
614.767	16.25
615.529	18.25
616.292	13.25
617.055	15.25
617.817	14.25
618.579	12.25
619.342	12.25
620.104	12.25
620.866	11.25
621.628	12.25
622.39	11.25
623.152	10.25
623.914	11.25
624.676	13.25
625.438	9.25
626.199	8.25
626.961	7.25
627.722	10.25
628.484	9.25
629.245	9.25
630.006	9.25
630.768	7.25
631.529	9.25
632.29	7.25
633.051	6.25
633.812	9.25
634.573	8.25
635.333	7.25
636.094	8.25
636.855	7.25
637.615	6.25
638.376	7.25
639.136	5.25
639.896	7.25
640.657	5.25
641.417	6.25
642.177	8.25
642.937	4.25
643.697	5.25
644.457	3.25
645.216	5.25
645.976	6.25
646.736	7.25
647.495	7.25
648.255	3.25
649.014	4.25
649.774	5.25
650.533	3.25
651.292	2.25
652.051	3.25
652.81	4.25
653.569	0.25
654.328	6.25
655.087	4.25
655.846	5.25
656.604	6.25
657.363	3.25
658.121	7.25
658.88	4.25
659.638	4.25
660.397	3.25
661.155	1.25
661.913	3.25
662.671	3.25
663.429	0.25
664.187	2.25
664.945	2.25
665.703	2.25
666.46	7.25
667.218	2.25
667.976	5.25
668.733	3.25
669.49	2.25
670.248	5.25
671.005	2.25
671.762	4.25
672.519	4.25
673.276	3.25
674.033	3.25
674.79	1.25
675.547	1.25
676.304	0.25
677.06	1.25
677.817	4.25
678.574	3.25
679.33	2.25
680.086	1.25
680.843	2.25
681.599	2.25
682.355	1.25
683.111	1.25
683.867	1.25
684.623	5.25
685.379	2.25
686.135	1.25
686.89	2.25
687.646	3.25
688.402	2.25
689.157	2.25
689.912	3.25
690.668	2.25
691.423	1.25
692.178	2.25
692.933	2.25
693.688	2.25
694.443	2.25
695.198	2.25
695.953	3.25
696.708	2.25
697.462	3.25
698.217	2.25
698.972	3.25
699.726	2.25
700.48	3.25
701.235	2.25
701.989	4.25
702.743	2.25
703.497	-0.75
704.251	1.25
705.005	1.25
705.759	5.25
706.513	1.25
707.266	3.25
708.02	2.25
708.774	1.25
709.527	3.25
710.28	1.25
711.034	2.25
711.787	0.25
712.54	1.25
713.293	3.25
714.046	1.25
714.799	2.25
715.552	2.25
716.305	2.25
717.058	2.25
717.81	1.25
718.563	3.25
719.315	2.25
720.068	2.25
720.82	1.25
721.573	1.25
722.325	1.25
723.077	1.25
723.829	2.25
724.581	1.25
725.333	1.25
726.085	4.25
726.836	0.25
727.588	2.25
728.34	2.25
729.091	4.25
729.843	2.25
730.594	-0.75
731.346	2.25
732.097	2.25
732.848	4.25
733.599	5.25
734.35	2.25
735.101	0.25
735.852	5.25
736.603	3.25
737.354	3.25
738.104	0.25
738.855	1.25
739.605	1.25
740.356	0.25
741.106	2.25
741.856	4.25
742.607	2.25
743.357	2.25
744.107	1.25
744.857	2.25
745.607	2.25
746.357	3.25
747.106	3.25
747.856	2.25
748.606	5.25
749.355	3.25
750.105	2.25
750.854	5.25
751.603	3.25
752.353	4.25
753.102	4.25
753.851	1.25
754.6	5.25
755.349	3.25
756.098	2.25
756.847	5.25
757.595	4.25
758.344	1.25
759.093	3.25
759.841	3.25
760.589	3.25
761.338	4.25
762.086	6.25
762.834	3.25
763.582	4.25
764.331	4.25
765.079	3.25
765.826	7.25
766.574	4.25
767.322	4.25
768.07	3.25
768.817	4.25
769.565	3.25
770.312	3.25
771.06	5.25
771.807	4.25
772.554	6.25
773.302	8.25
774.049	4.25
774.796	5.25
775.543	5.25
776.29	4.25
777.036	3.25
777.783	6.25
778.53	6.25
779.276	4.25
780.023	5.25
780.769	5.25
781.516	9.25
782.262	7.25
783.008	5.25
783.754	4.25
784.5	2.25
785.246	5.25
785.992	4.25
786.738	7.25
787.484	5.25
788.23	5.25
788.975	4.25
789.721	4.25
790.466	5.25
791.212	3.25
791.957	5.25
792.702	5.25
793.447	6.25
794.193	5.25
794.938	8.25
795.683	3.25
796.427	5.25
797.172	6.25
797.917	3.25
798.662	6.25
799.406	6.25
800.151	5.25
800.895	4.25
801.64	6.25
802.384	5.25
803.128	5.25
803.872	4.25
804.616	5.25
805.36	2.25
806.104	5.25
806.848	3.25
807.592	5.25
808.336	2.25
809.079	5.25
809.823	2.25
810.566	4.25
811.31	3.25
812.053	4.25
812.796	4.25
813.539	4.25
814.283	2.25
815.026	4.25
815.769	5.25
816.511	2.25
817.254	2.25
817.997	4.25
818.74	5.25
819.482	1.25
820.225	3.25
820.967	2.25
821.71	2.25
822.452	3.25
823.194	3.25
823.936	3.25
824.678	3.25
825.42	2.25
826.162	3.25
826.904	5.25
827.646	2.25
828.388	2.25
829.129	4.25
829.871	1.25
830.612	3.25
831.354	3.25
832.095	4.25
832.836	5.25
833.577	2.25
834.319	4.25
835.06	2.25
835.801	6.25
836.542	0.25
837.282	2.25
838.023	2.25
838.764	3.25
839.504	2.25
840.245	2.25
840.985	1.25
841.726	3.25
842.466	4.25
843.206	2.25
843.946	3.25
844.687	5.25
845.427	3.25
846.166	1.25
846.906	2.25
847.646	3.25
848.386	0.25
849.125	1.25
849.865	1.25
850.605	2.25
851.344	2.25
852.083	3.25
852.823	2.25
853.562	2.25
854.301	2.25
855.04	1.25
855.779	2.25
856.518	3.25
857.257	1.25
857.995	1.25
858.734	2.25
859.473	2.25
860.211	1.25
860.95	1.25
861.688	2.25
862.426	0.25
863.165	1.25
863.903	2.25
864.641	2.25
865.379	2.25
866.117	3.25
866.855	-1.75
867.593	0.25
868.33	0.25
869.068	1.25
869.806	1.25
870.543	0.25
871.28	1.25
872.018	1.25
872.755	1.25
873.492	0.25
874.229	1.25
874.967	-0.75
875.703	0.25
876.44	0.25
877.177	1.25
877.914	-0.75
878.651	1.25
879.387	0.25
880.124	0.25
880.86	1.25
881.597	2.25
882.333	1.25
883.069	1.25
883.806	0.25
884.542	0.25
885.278	1.25
886.014	1.25
886.749	2.25
887.485	1.25
888.221	-0.75
888.957	2.25
889.692	2.25
890.428	0.25
891.163	2.25
891.899	-0.75
892.634	0.25
893.369	1.25
894.104	0.25
894.839	-0.75
895.574	1.25
896.309	-0.75
897.044	2.25
897.779	-1.75
898.514	-0.75
899.248	-0.75
899.983	-0.75
900.717	-1.75
901.452	1.25
902.186	-0.75
902.92	-0.75
903.654	0.25
904.389	1.25
905.123	0.25
905.857	-0.75
906.59	-0.75
907.324	0.25
908.058	0.25
908.792	0.25
909.525	1.25
910.259	0.25
910.992	0.25
911.726	-0.75
912.459	0.25
913.192	-1.75
913.925	0.25
914.658	-0.75
915.391	1.25
916.124	1.25
916.857	-0.75
917.59	0.25
918.323	-0.75
919.055	1.25
919.788	-0.75
920.521	0.25
921.253	1.25
921.985	0.25
922.718	2.25
923.45	-0.75
924.182	2.25
924.914	-0.75
925.646	-1.75
926.378	2.25
927.11	-0.75
927.841	0.25
928.573	0.25
929.305	1.25
930.036	1.25
930.768	1.25
931.499	2.25
932.23	-0.75
932.962	2.25
933.693	2.25
934.424	0.25
935.155	0.25
935.886	1.25
936.617	1.25
937.348	-1.75
938.078	2.25
938.809	0.25
939.54	0.25
940.27	2.25
941.001	1.25
941.731	0.25
942.461	-1.75
943.191	0.25
943.922	1.25
944.652	0.25
945.382	1.25
946.112	1.25
946.841	1.25
947.571	1.25
948.301	1.25
949.031	1.25
949.76	-0.75
950.49	2.25
951.219	0.25
951.948	0.25
952.678	1.25
953.407	1.25
954.136	0.25
954.865	1.25
955.594	-0.75
956.323	-0.75
957.052	-0.75
957.78	1.25
958.509	-0.75
959.238	1.25
959.966	-1.75
960.695	1.25
961.423	-0.75
962.151	1.25
962.88	-1.75
963.608	0.25
964.336	-0.75
965.064	1.25
965.792	1.25
966.52	-1.75
967.247	2.25
967.975	0.25
968.703	0.25
969.43	0.25
970.158	-0.75
970.885	1.25
971.613	-0.75
972.34	1.25
973.067	-0.75
973.794	1.25
974.521	-1.75
975.248	-0.75
975.975	0.25
976.702	0.25
977.429	2.25
978.156	-0.75
978.882	-0.75
979.609	-0.75
980.335	0.25
981.062	1.25
981.788	0.25
982.514	1.25
983.24	-0.75
983.967	1.25
984.693	0.25
985.419	1.25
986.144	-0.75
986.87	-0.75
987.596	1.25
988.322	1.25
989.047	-1.75
989.773	0.25
990.498	0.25
991.224	1.25
991.949	0.25
992.674	1.25
993.399	-1.75
994.124	-1.75
994.849	1.25
995.574	0.25
996.299	1.25
997.024	1.25
997.749	0.25
998.473	3.25
999.198	0.25
999.922	0.25
1000.647	0.25
1001.371	3.25
1002.095	0.25
1002.82	-0.75
1003.544	-2.75
1004.268	0.25
1004.992	0.25
1005.716	-2.75
1006.439	-0.75
1007.163	0.25
1007.887	-0.75
1008.611	2.25
1009.334	0.25
1010.058	2.25
1010.781	2.25
1011.504	-0.75
1012.228	0.25
1012.951	-0.75
1013.674	0.25
1014.397	1.25
1015.12	-0.75
