节点500_145_QEPB04081__288__11-33-34-481.txt的数据

Date: Wed Nov 12 11:33:34 CST 2025
User: PC
Spectrometer: QEPB0408
触发模式: 0
积分时间 (秒): 1.000000E-2
Scans to average: 1
启用暗噪声校正: true
启用非线性校正: false
滑动平均宽度: 0
X轴模式: Wavelengths
Number of Pixels in Spectrum: 1044
>>>>>Begin Spectral Data<<<<<
220.843	-0.5
221.644	-1.5
222.444	1.5
223.244	-1.5
224.045	1.5
224.845	0.5
225.645	-1.5
226.445	-0.5
227.245	0.5
228.045	1.5
228.845	-1.5
229.645	0.5
230.444	1.5
231.244	-0.5
232.043	0.5
232.843	-0.5
233.642	1.5
234.442	0.5
235.241	0.5
236.04	2.5
236.839	0.5
237.638	2.5
238.437	-0.5
239.236	1.5
240.035	2.5
240.833	0.5
241.632	0.5
242.43	0.5
243.229	1.5
244.027	1.5
244.826	1.5
245.624	1.5
246.422	2.5
247.22	4.5
248.018	2.5
248.816	3.5
249.614	2.5
250.412	2.5
251.21	2.5
252.007	1.5
252.805	3.5
253.602	2.5
254.4	2.5
255.197	2.5
255.994	3.5
256.791	3.5
257.589	3.5
258.386	4.5
259.183	4.5
259.979	5.5
260.776	3.5
261.573	5.5
262.37	2.5
263.166	6.5
263.963	5.5
264.759	5.5
265.556	5.5
266.352	5.5
267.148	5.5
267.944	5.5
268.74	5.5
269.536	7.5
270.332	9.5
271.128	9.5
271.924	7.5
272.719	7.5
273.515	6.5
274.311	9.5
275.106	9.5
275.901	9.5
276.697	7.5
277.492	10.5
278.287	10.5
279.082	11.5
279.877	9.5
280.672	10.5
281.467	12.5
282.262	11.5
283.056	9.5
283.851	11.5
284.646	10.5
285.44	10.5
286.234	11.5
287.029	10.5
287.823	11.5
288.617	10.5
289.411	11.5
290.205	10.5
290.999	10.5
291.793	10.5
292.587	10.5
293.381	11.5
294.174	10.5
294.968	11.5
295.761	11.5
296.555	7.5
297.348	8.5
298.141	9.5
298.935	10.5
299.728	9.5
300.521	9.5
301.314	7.5
302.107	6.5
302.899	9.5
303.692	9.5
304.485	9.5
305.277	8.5
306.07	8.5
306.862	8.5
307.655	7.5
308.447	6.5
309.239	5.5
310.031	7.5
310.823	7.5
311.615	6.5
312.407	6.5
313.199	5.5
313.991	5.5
314.783	6.5
315.574	8.5
316.366	6.5
317.157	6.5
317.949	6.5
318.74	4.5
319.531	5.5
320.322	5.5
321.113	5.5
321.904	3.5
322.695	6.5
323.486	4.5
324.277	2.5
325.068	4.5
325.858	2.5
326.649	5.5
327.439	5.5
328.23	2.5
329.02	3.5
329.81	6.5
330.6	3.5
331.391	2.5
332.181	3.5
332.971	2.5
333.76	3.5
334.55	4.5
335.34	1.5
336.13	5.5
336.919	2.5
337.709	1.5
338.498	3.5
339.287	3.5
340.077	4.5
340.866	3.5
341.655	3.5
342.444	3.5
343.233	4.5
344.022	3.5
344.811	3.5
345.6	3.5
346.388	2.5
347.177	4.5
347.965	1.5
348.754	0.5
349.542	4.5
350.33	4.5
351.119	4.5
351.907	2.5
352.695	4.5
353.483	2.5
354.271	5.5
355.059	4.5
355.846	3.5
356.634	3.5
357.422	1.5
358.209	3.5
358.997	3.5
359.784	3.5
360.571	2.5
361.359	3.5
362.146	2.5
362.933	1.5
363.72	3.5
364.507	1.5
365.294	3.5
366.081	3.5
366.867	3.5
367.654	2.5
368.44	2.5
369.227	2.5
370.013	3.5
370.8	3.5
371.586	2.5
372.372	1.5
373.158	1.5
373.944	1.5
374.73	1.5
375.516	5.5
376.302	1.5
377.088	3.5
377.873	3.5
378.659	1.5
379.445	2.5
380.23	3.5
381.015	2.5
381.801	2.5
382.586	3.5
383.371	3.5
384.156	2.5
384.941	2.5
385.726	3.5
386.511	5.5
387.296	1.5
388.08	1.5
388.865	3.5
389.649	3.5
390.434	0.5
391.218	3.5
392.003	2.5
392.787	2.5
393.571	3.5
394.355	1.5
395.139	3.5
395.923	2.5
396.707	2.5
397.491	2.5
398.274	3.5
399.058	3.5
399.842	4.5
400.625	5.5
401.408	4.5
402.192	4.5
402.975	3.5
403.758	2.5
404.541	3.5
405.324	5.5
406.107	5.5
406.89	4.5
407.673	6.5
408.456	2.5
409.238	8.5
410.021	4.5
410.803	3.5
411.586	7.5
412.368	5.5
413.151	3.5
413.933	4.5
414.715	1.5
415.497	3.5
416.279	4.5
417.061	3.5
417.843	3.5
418.624	4.5
419.406	4.5
420.188	2.5
420.969	2.5
421.751	6.5
422.532	7.5
423.313	5.5
424.095	5.5
424.876	8.5
425.657	6.5
426.438	6.5
427.219	5.5
428	7.5
428.78	7.5
429.561	6.5
430.342	7.5
431.122	8.5
431.903	9.5
432.683	7.5
433.464	8.5
434.244	9.5
435.024	5.5
435.804	7.5
436.584	8.5
437.364	11.5
438.144	11.5
438.924	11.5
439.704	12.5
440.483	12.5
441.263	11.5
442.042	10.5
442.822	14.5
443.601	15.5
444.38	13.5
445.16	15.5
445.939	14.5
446.718	17.5
447.497	20.5
448.276	21.5
449.054	22.5
449.833	21.5
450.612	25.5
451.391	27.5
452.169	30.5
452.948	31.5
453.726	33.5
454.504	39.5
455.282	41.5
456.061	44.5
456.839	48.5
457.617	52.5
458.395	54.5
459.172	66.5
459.95	70.5
460.728	79.5
461.506	93.5
462.283	99.5
463.061	110.5
463.838	126.5
464.615	136.5
465.393	154.5
466.17	171.5
466.947	193.5
467.724	218.5
468.501	248.5
469.278	275.5
470.055	298.5
470.831	337.5
471.608	369.5
472.385	410.5
473.161	448.5
473.938	510.5
474.714	567.5
475.49	625.5
476.266	696.5
477.043	768.5
477.819	856.5
478.595	938.5
479.371	1036.5
480.146	1154.5
480.922	1277.5
481.698	1393.5
482.473	1555.5
483.249	1705.5
484.024	1882.5
484.8	2061.5
485.575	2266.5
486.35	2529.5
487.126	2769.5
487.901	3054.5
488.676	3369.5
489.451	3668.5
490.225	4071.5
491	4454.5
491.775	4914.5
492.55	5381.5
493.324	5885.5
494.099	6445.5
494.873	7047.5
495.647	7629.5
496.422	8333.5
497.196	9006.5
497.97	9719.5
498.744	10464.5
499.518	11181.5
500.292	11917.5
501.066	12712.5
501.839	13301.5
502.613	14055.5
503.387	14650.5
504.16	15203.5
504.934	15652.5
505.707	15987.5
506.48	16289.5
507.253	16418.5
508.027	16521.5
508.8	16486.5
509.573	16303.5
510.346	16056.5
511.118	15704.5
511.891	15341.5
512.664	14844.5
513.437	14318.5
514.209	13808.5
514.982	13261.5
515.754	12699.5
516.526	12176.5
517.298	11631.5
518.071	11120.5
518.843	10595.5
519.615	10130.5
520.387	9726.5
521.159	9373.5
521.93	8938.5
522.702	8606.5
523.474	8314.5
524.245	7954.5
525.017	7633.5
525.788	7322.5
526.56	7072.5
527.331	6746.5
528.102	6471.5
528.873	6187.5
529.644	5891.5
530.415	5639.5
531.186	5355.5
531.957	5098.5
532.728	4834.5
533.498	4579.5
534.269	4325.5
535.039	4083.5
535.81	3858.5
536.58	3665.5
537.351	3430.5
538.121	3243.5
538.891	3059.5
539.661	2895.5
540.431	2745.5
541.201	2599.5
541.971	2475.5
542.741	2337.5
543.51	2205.5
544.28	2087.5
545.05	1982.5
545.819	1883.5
546.588	1810.5
547.358	1722.5
548.127	1619.5
548.896	1553.5
549.665	1472.5
550.434	1387.5
551.203	1338.5
551.972	1254.5
552.741	1194.5
553.51	1111.5
554.278	1053.5
555.047	1005.5
555.815	951.5
556.584	890.5
557.352	832.5
558.121	802.5
558.889	744.5
559.657	705.5
560.425	662.5
561.193	629.5
561.961	589.5
562.729	558.5
563.496	530.5
564.264	503.5
565.032	460.5
565.799	437.5
566.567	418.5
567.334	393.5
568.101	374.5
568.869	347.5
569.636	334.5
570.403	313.5
571.17	298.5
571.937	282.5
572.704	265.5
573.471	246.5
574.237	233.5
575.004	222.5
575.771	208.5
576.537	193.5
577.303	189.5
578.07	179.5
578.836	161.5
579.602	147.5
580.368	147.5
581.134	138.5
581.9	130.5
582.666	123.5
583.432	113.5
584.198	112.5
584.964	105.5
585.729	95.5
586.495	94.5
587.26	89.5
588.025	85.5
588.791	76.5
589.556	74.5
590.321	68.5
591.086	68.5
591.851	55.5
592.616	60.5
593.381	56.5
594.146	53.5
594.911	49.5
595.675	53.5
596.44	43.5
597.204	44.5
597.969	40.5
598.733	40.5
599.497	37.5
600.261	38.5
601.025	33.5
601.79	34.5
602.553	31.5
603.317	31.5
604.081	28.5
604.845	30.5
605.609	25.5
606.372	26.5
607.136	23.5
607.899	19.5
608.662	20.5
609.426	21.5
610.189	19.5
610.952	18.5
611.715	19.5
612.478	17.5
613.241	17.5
614.004	17.5
614.767	19.5
615.529	13.5
616.292	12.5
617.055	14.5
617.817	15.5
618.579	13.5
619.342	13.5
620.104	12.5
620.866	14.5
621.628	13.5
622.39	10.5
623.152	10.5
623.914	12.5
624.676	10.5
625.438	10.5
626.199	8.5
626.961	10.5
627.722	9.5
628.484	8.5
629.245	8.5
630.006	7.5
630.768	9.5
631.529	8.5
632.29	9.5
633.051	7.5
633.812	5.5
634.573	8.5
635.333	4.5
636.094	7.5
636.855	6.5
637.615	5.5
638.376	6.5
639.136	5.5
639.896	7.5
640.657	3.5
641.417	4.5
642.177	6.5
642.937	6.5
643.697	3.5
644.457	3.5
645.216	4.5
645.976	3.5
646.736	3.5
647.495	7.5
648.255	4.5
649.014	5.5
649.774	0.5
650.533	5.5
651.292	4.5
652.051	3.5
652.81	4.5
653.569	0.5
654.328	4.5
655.087	4.5
655.846	3.5
656.604	2.5
657.363	3.5
658.121	4.5
658.88	2.5
659.638	4.5
660.397	2.5
661.155	0.5
661.913	4.5
662.671	3.5
663.429	3.5
664.187	2.5
664.945	3.5
665.703	0.5
666.46	3.5
667.218	2.5
667.976	1.5
668.733	4.5
669.49	3.5
670.248	2.5
671.005	4.5
671.762	2.5
672.519	2.5
673.276	0.5
674.033	2.5
674.79	1.5
675.547	1.5
676.304	-0.5
677.06	2.5
677.817	2.5
678.574	2.5
679.33	2.5
680.086	2.5
680.843	1.5
681.599	1.5
682.355	1.5
683.111	2.5
683.867	4.5
684.623	2.5
685.379	0.5
686.135	2.5
686.89	2.5
687.646	2.5
688.402	1.5
689.157	4.5
689.912	1.5
690.668	0.5
691.423	2.5
692.178	2.5
692.933	1.5
693.688	3.5
694.443	3.5
695.198	2.5
695.953	1.5
696.708	2.5
697.462	1.5
698.217	0.5
698.972	0.5
699.726	1.5
700.48	1.5
701.235	1.5
701.989	2.5
702.743	0.5
703.497	2.5
704.251	1.5
705.005	2.5
705.759	3.5
706.513	3.5
707.266	1.5
708.02	2.5
708.774	2.5
709.527	2.5
710.28	2.5
711.034	3.5
711.787	1.5
712.54	3.5
713.293	2.5
714.046	2.5
714.799	3.5
715.552	3.5
716.305	4.5
717.058	1.5
717.81	3.5
718.563	0.5
719.315	1.5
720.068	2.5
720.82	1.5
721.573	2.5
722.325	1.5
723.077	2.5
723.829	1.5
724.581	4.5
725.333	2.5
726.085	2.5
726.836	1.5
727.588	-0.5
728.34	2.5
729.091	1.5
729.843	2.5
730.594	-0.5
731.346	2.5
732.097	2.5
732.848	2.5
733.599	1.5
734.35	2.5
735.101	1.5
735.852	3.5
736.603	3.5
737.354	2.5
738.104	0.5
738.855	4.5
739.605	3.5
740.356	2.5
741.106	3.5
741.856	0.5
742.607	4.5
743.357	2.5
744.107	2.5
744.857	2.5
745.607	1.5
746.357	0.5
747.106	1.5
747.856	1.5
748.606	0.5
749.355	3.5
750.105	2.5
750.854	4.5
751.603	3.5
752.353	0.5
753.102	3.5
753.851	2.5
754.6	4.5
755.349	2.5
756.098	1.5
756.847	3.5
757.595	2.5
758.344	2.5
759.093	4.5
759.841	2.5
760.589	2.5
761.338	1.5
762.086	2.5
762.834	1.5
763.582	4.5
764.331	4.5
765.079	1.5
765.826	3.5
766.574	4.5
767.322	4.5
768.07	3.5
768.817	3.5
769.565	4.5
770.312	2.5
771.06	6.5
771.807	3.5
772.554	4.5
773.302	5.5
774.049	5.5
774.796	5.5
775.543	3.5
776.29	2.5
777.036	3.5
777.783	5.5
778.53	6.5
779.276	2.5
780.023	6.5
780.769	5.5
781.516	5.5
782.262	5.5
783.008	3.5
783.754	5.5
784.5	5.5
785.246	5.5
785.992	5.5
786.738	5.5
787.484	3.5
788.23	5.5
788.975	5.5
789.721	4.5
790.466	4.5
791.212	5.5
791.957	3.5
792.702	3.5
793.447	6.5
794.193	3.5
794.938	7.5
795.683	4.5
796.427	1.5
797.172	6.5
797.917	6.5
798.662	5.5
799.406	4.5
800.151	2.5
800.895	5.5
801.64	3.5
802.384	5.5
803.128	4.5
803.872	4.5
804.616	5.5
805.36	2.5
806.104	4.5
806.848	4.5
807.592	3.5
808.336	4.5
809.079	2.5
809.823	4.5
810.566	4.5
811.31	4.5
812.053	5.5
812.796	3.5
813.539	5.5
814.283	3.5
815.026	4.5
815.769	3.5
816.511	5.5
817.254	3.5
817.997	3.5
818.74	4.5
819.482	2.5
820.225	2.5
820.967	5.5
821.71	2.5
822.452	1.5
823.194	4.5
823.936	2.5
824.678	2.5
825.42	4.5
826.162	1.5
826.904	2.5
827.646	2.5
828.388	2.5
829.129	5.5
829.871	3.5
830.612	3.5
831.354	2.5
832.095	1.5
832.836	2.5
833.577	1.5
834.319	2.5
835.06	2.5
835.801	2.5
836.542	2.5
837.282	1.5
838.023	-0.5
838.764	2.5
839.504	2.5
840.245	1.5
840.985	0.5
841.726	-0.5
842.466	3.5
843.206	0.5
843.946	1.5
844.687	4.5
845.427	1.5
846.166	1.5
846.906	2.5
847.646	2.5
848.386	3.5
849.125	4.5
849.865	1.5
850.605	3.5
851.344	2.5
852.083	0.5
852.823	3.5
853.562	1.5
854.301	0.5
855.04	2.5
855.779	4.5
856.518	2.5
857.257	1.5
857.995	1.5
858.734	1.5
859.473	1.5
860.211	1.5
860.95	0.5
861.688	3.5
862.426	1.5
863.165	2.5
863.903	1.5
864.641	1.5
865.379	2.5
866.117	2.5
866.855	2.5
867.593	-2.5
868.33	1.5
869.068	-0.5
869.806	0.5
870.543	3.5
871.28	1.5
872.018	2.5
872.755	2.5
873.492	1.5
874.229	-1.5
874.967	-0.5
875.703	1.5
876.44	-0.5
877.177	-0.5
877.914	0.5
878.651	0.5
879.387	-1.5
880.124	2.5
880.86	1.5
881.597	0.5
882.333	-0.5
883.069	2.5
883.806	1.5
884.542	1.5
885.278	0.5
886.014	-0.5
886.749	-0.5
887.485	0.5
888.221	-0.5
888.957	2.5
889.692	-0.5
890.428	2.5
891.163	1.5
891.899	0.5
892.634	0.5
893.369	1.5
894.104	1.5
894.839	-0.5
895.574	1.5
896.309	1.5
897.044	1.5
897.779	-2.5
898.514	-1.5
899.248	0.5
899.983	-0.5
900.717	2.5
901.452	0.5
902.186	1.5
902.92	2.5
903.654	-0.5
904.389	2.5
905.123	1.5
905.857	1.5
906.59	1.5
907.324	0.5
908.058	-0.5
908.792	0.5
909.525	-0.5
910.259	-0.5
910.992	0.5
911.726	1.5
912.459	-0.5
913.192	0.5
913.925	-0.5
914.658	0.5
915.391	-0.5
916.124	1.5
916.857	-0.5
917.59	1.5
918.323	0.5
919.055	-2.5
919.788	-0.5
920.521	0.5
921.253	-1.5
921.985	1.5
922.718	-1.5
923.45	2.5
924.182	-0.5
924.914	0.5
925.646	-1.5
926.378	-1.5
927.11	1.5
927.841	-0.5
928.573	2.5
929.305	-1.5
930.036	0.5
930.768	-1.5
931.499	-1.5
932.23	1.5
932.962	-0.5
933.693	0.5
934.424	0.5
935.155	0.5
935.886	0.5
936.617	1.5
937.348	-0.5
938.078	-0.5
938.809	0.5
939.54	-0.5
940.27	0.5
941.001	2.5
941.731	-2.5
942.461	0.5
943.191	0.5
943.922	2.5
944.652	0.5
945.382	0.5
946.112	0.5
946.841	0.5
947.571	-0.5
948.301	1.5
949.031	2.5
949.76	0.5
950.49	2.5
951.219	0.5
951.948	-1.5
952.678	0.5
953.407	-1.5
954.136	2.5
954.865	3.5
955.594	0.5
956.323	1.5
957.052	-1.5
957.78	-0.5
958.509	-2.5
959.238	0.5
959.966	0.5
960.695	-1.5
961.423	0.5
962.151	-0.5
962.88	1.5
963.608	1.5
964.336	0.5
965.064	2.5
965.792	1.5
966.52	-1.5
967.247	1.5
967.975	2.5
968.703	-1.5
969.43	2.5
970.158	1.5
970.885	-0.5
971.613	-0.5
972.34	-1.5
973.067	1.5
973.794	1.5
974.521	0.5
975.248	-1.5
975.975	-2.5
976.702	1.5
977.429	1.5
978.156	1.5
978.882	-1.5
979.609	0.5
980.335	0.5
981.062	0.5
981.788	0.5
982.514	-1.5
983.24	-1.5
983.967	0.5
984.693	-1.5
985.419	2.5
986.144	0.5
986.87	0.5
987.596	-1.5
988.322	1.5
989.047	0.5
989.773	1.5
990.498	4.5
991.224	-0.5
991.949	1.5
992.674	-1.5
993.399	1.5
994.124	-1.5
994.849	0.5
995.574	0.5
996.299	-1.5
997.024	-0.5
997.749	-0.5
998.473	2.5
999.198	1.5
999.922	-0.5
1000.647	-0.5
1001.371	2.5
1002.095	-0.5
1002.82	0.5
1003.544	0.5
1004.268	-0.5
1004.992	-1.5
1005.716	-1.5
1006.439	0.5
1007.163	0.5
1007.887	2.5
1008.611	-2.5
1009.334	-1.5
1010.058	-2.5
1010.781	1.5
1011.504	0.5
1012.228	0.5
1012.951	-0.5
1013.674	-2.5
1014.397	0.5
1015.12	-0.5
