节点500_145_QEPB04081__347__11-34-29-527.txt的数据

Date: Wed Nov 12 11:34:29 CST 2025
User: PC
Spectrometer: QEPB0408
触发模式: 0
积分时间 (秒): 1.000000E-2
Scans to average: 1
启用暗噪声校正: true
启用非线性校正: false
滑动平均宽度: 0
X轴模式: Wavelengths
Number of Pixels in Spectrum: 1044
>>>>>Begin Spectral Data<<<<<
220.843	0.5
221.644	0.5
222.444	0.5
223.244	-0.5
224.045	1.5
224.845	1.5
225.645	2.5
226.445	1.5
227.245	-1.5
228.045	0.5
228.845	2.5
229.645	-0.5
230.444	2.5
231.244	0.5
232.043	-1.5
232.843	-1.5
233.642	1.5
234.442	0.5
235.241	2.5
236.04	0.5
236.839	1.5
237.638	1.5
238.437	1.5
239.236	1.5
240.035	2.5
240.833	3.5
241.632	1.5
242.43	2.5
243.229	2.5
244.027	-0.5
244.826	2.5
245.624	3.5
246.422	0.5
247.22	0.5
248.018	1.5
248.816	1.5
249.614	2.5
250.412	3.5
251.21	2.5
252.007	0.5
252.805	3.5
253.602	3.5
254.4	3.5
255.197	2.5
255.994	2.5
256.791	2.5
257.589	2.5
258.386	3.5
259.183	4.5
259.979	3.5
260.776	5.5
261.573	5.5
262.37	6.5
263.166	5.5
263.963	5.5
264.759	2.5
265.556	6.5
266.352	4.5
267.148	4.5
267.944	6.5
268.74	7.5
269.536	5.5
270.332	6.5
271.128	5.5
271.924	7.5
272.719	7.5
273.515	9.5
274.311	8.5
275.106	9.5
275.901	7.5
276.697	8.5
277.492	7.5
278.287	10.5
279.082	9.5
279.877	8.5
280.672	10.5
281.467	10.5
282.262	11.5
283.056	11.5
283.851	8.5
284.646	9.5
285.44	10.5
286.234	9.5
287.029	10.5
287.823	11.5
288.617	11.5
289.411	10.5
290.205	9.5
290.999	10.5
291.793	11.5
292.587	12.5
293.381	11.5
294.174	10.5
294.968	9.5
295.761	9.5
296.555	7.5
297.348	9.5
298.141	11.5
298.935	10.5
299.728	10.5
300.521	9.5
301.314	5.5
302.107	9.5
302.899	10.5
303.692	7.5
304.485	9.5
305.277	7.5
306.07	9.5
306.862	5.5
307.655	5.5
308.447	9.5
309.239	7.5
310.031	8.5
310.823	7.5
311.615	6.5
312.407	7.5
313.199	4.5
313.991	6.5
314.783	2.5
315.574	7.5
316.366	5.5
317.157	6.5
317.949	4.5
318.74	4.5
319.531	4.5
320.322	2.5
321.113	6.5
321.904	4.5
322.695	4.5
323.486	3.5
324.277	3.5
325.068	6.5
325.858	3.5
326.649	4.5
327.439	4.5
328.23	4.5
329.02	4.5
329.81	4.5
330.6	4.5
331.391	2.5
332.181	1.5
332.971	4.5
333.76	2.5
334.55	4.5
335.34	3.5
336.13	4.5
336.919	1.5
337.709	4.5
338.498	2.5
339.287	4.5
340.077	5.5
340.866	2.5
341.655	4.5
342.444	3.5
343.233	6.5
344.022	3.5
344.811	3.5
345.6	5.5
346.388	2.5
347.177	4.5
347.965	3.5
348.754	3.5
349.542	3.5
350.33	4.5
351.119	4.5
351.907	0.5
352.695	3.5
353.483	1.5
354.271	5.5
355.059	3.5
355.846	4.5
356.634	6.5
357.422	3.5
358.209	1.5
358.997	2.5
359.784	2.5
360.571	3.5
361.359	2.5
362.146	2.5
362.933	2.5
363.72	4.5
364.507	1.5
365.294	3.5
366.081	2.5
366.867	1.5
367.654	1.5
368.44	3.5
369.227	2.5
370.013	4.5
370.8	4.5
371.586	4.5
372.372	3.5
373.158	2.5
373.944	0.5
374.73	3.5
375.516	2.5
376.302	1.5
377.088	2.5
377.873	2.5
378.659	0.5
379.445	1.5
380.23	3.5
381.015	3.5
381.801	1.5
382.586	5.5
383.371	1.5
384.156	4.5
384.941	1.5
385.726	1.5
386.511	2.5
387.296	1.5
388.08	1.5
388.865	0.5
389.649	2.5
390.434	3.5
391.218	2.5
392.003	2.5
392.787	3.5
393.571	3.5
394.355	0.5
395.139	2.5
395.923	2.5
396.707	2.5
397.491	4.5
398.274	3.5
399.058	4.5
399.842	3.5
400.625	3.5
401.408	4.5
402.192	4.5
402.975	4.5
403.758	0.5
404.541	2.5
405.324	3.5
406.107	5.5
406.89	3.5
407.673	5.5
408.456	4.5
409.238	4.5
410.021	2.5
410.803	5.5
411.586	5.5
412.368	2.5
413.151	4.5
413.933	3.5
414.715	2.5
415.497	4.5
416.279	3.5
417.061	7.5
417.843	4.5
418.624	7.5
419.406	7.5
420.188	7.5
420.969	4.5
421.751	6.5
422.532	5.5
423.313	5.5
424.095	5.5
424.876	6.5
425.657	6.5
426.438	5.5
427.219	5.5
428	8.5
428.78	4.5
429.561	8.5
430.342	6.5
431.122	6.5
431.903	9.5
432.683	9.5
433.464	7.5
434.244	8.5
435.024	7.5
435.804	9.5
436.584	9.5
437.364	11.5
438.144	12.5
438.924	12.5
439.704	10.5
440.483	10.5
441.263	11.5
442.042	10.5
442.822	12.5
443.601	13.5
444.38	13.5
445.16	15.5
445.939	19.5
446.718	19.5
447.497	20.5
448.276	19.5
449.054	18.5
449.833	25.5
450.612	23.5
451.391	25.5
452.169	31.5
452.948	29.5
453.726	35.5
454.504	37.5
455.282	41.5
456.061	44.5
456.839	49.5
457.617	59.5
458.395	59.5
459.172	66.5
459.95	73.5
460.728	88.5
461.506	92.5
462.283	107.5
463.061	112.5
463.838	128.5
464.615	143.5
465.393	158.5
466.17	176.5
466.947	201.5
467.724	227.5
468.501	245.5
469.278	269.5
470.055	312.5
470.831	335.5
471.608	372.5
472.385	418.5
473.161	464.5
473.938	519.5
474.714	571.5
475.49	633.5
476.266	707.5
477.043	771.5
477.819	866.5
478.595	954.5
479.371	1063.5
480.146	1152.5
480.922	1284.5
481.698	1418.5
482.473	1546.5
483.249	1703.5
484.024	1887.5
484.8	2054.5
485.575	2278.5
486.35	2491.5
487.126	2754.5
487.901	3036.5
488.676	3328.5
489.451	3634.5
490.225	3993.5
491	4400.5
491.775	4820.5
492.55	5271.5
493.324	5797.5
494.099	6337.5
494.873	6879.5
495.647	7489.5
496.422	8161.5
497.196	8807.5
497.97	9520.5
498.744	10201.5
499.518	10946.5
500.292	11688.5
501.066	12360.5
501.839	13067.5
502.613	13779.5
503.387	14342.5
504.16	14889.5
504.934	15344.5
505.707	15708.5
506.48	16001.5
507.253	16233.5
508.027	16343.5
508.8	16297.5
509.573	16129.5
510.346	15920.5
511.118	15625.5
511.891	15269.5
512.664	14827.5
513.437	14369.5
514.209	13830.5
514.982	13281.5
515.754	12781.5
516.526	12222.5
517.298	11703.5
518.071	11162.5
518.843	10691.5
519.615	10219.5
520.387	9790.5
521.159	9434.5
521.93	9030.5
522.702	8656.5
523.474	8334.5
524.245	8004.5
525.017	7698.5
525.788	7374.5
526.56	7080.5
527.331	6774.5
528.102	6509.5
528.873	6198.5
529.644	5943.5
530.415	5669.5
531.186	5387.5
531.957	5117.5
532.728	4861.5
533.498	4603.5
534.269	4367.5
535.039	4124.5
535.81	3896.5
536.58	3687.5
537.351	3486.5
538.121	3289.5
538.891	3119.5
539.661	2955.5
540.431	2771.5
541.201	2623.5
541.971	2513.5
542.741	2372.5
543.51	2238.5
544.28	2125.5
545.05	2018.5
545.819	1922.5
546.588	1817.5
547.358	1736.5
548.127	1649.5
548.896	1562.5
549.665	1487.5
550.434	1416.5
551.203	1339.5
551.972	1275.5
552.741	1206.5
553.51	1131.5
554.278	1085.5
555.047	1028.5
555.815	962.5
556.584	905.5
557.352	852.5
558.121	807.5
558.889	761.5
559.657	718.5
560.425	669.5
561.193	628.5
561.961	597.5
562.729	558.5
563.496	532.5
564.264	502.5
565.032	472.5
565.799	445.5
566.567	420.5
567.334	396.5
568.101	381.5
568.869	352.5
569.636	330.5
570.403	321.5
571.17	303.5
571.937	289.5
572.704	269.5
573.471	253.5
574.237	239.5
575.004	223.5
575.771	212.5
576.537	190.5
577.303	185.5
578.07	178.5
578.836	167.5
579.602	155.5
580.368	143.5
581.134	142.5
581.9	130.5
582.666	123.5
583.432	118.5
584.198	115.5
584.964	105.5
585.729	103.5
586.495	97.5
587.26	92.5
588.025	82.5
588.791	77.5
589.556	77.5
590.321	72.5
591.086	66.5
591.851	65.5
592.616	60.5
593.381	56.5
594.146	56.5
594.911	54.5
595.675	48.5
596.44	46.5
597.204	47.5
597.969	40.5
598.733	38.5
599.497	42.5
600.261	37.5
601.025	35.5
601.79	33.5
602.553	32.5
603.317	31.5
604.081	29.5
604.845	26.5
605.609	28.5
606.372	25.5
607.136	25.5
607.899	24.5
608.662	25.5
609.426	23.5
610.189	21.5
610.952	19.5
611.715	19.5
612.478	20.5
613.241	16.5
614.004	14.5
614.767	17.5
615.529	14.5
616.292	16.5
617.055	14.5
617.817	14.5
618.579	15.5
619.342	13.5
620.104	13.5
620.866	11.5
621.628	10.5
622.39	12.5
623.152	12.5
623.914	9.5
624.676	9.5
625.438	10.5
626.199	10.5
626.961	10.5
627.722	9.5
628.484	7.5
629.245	9.5
630.006	7.5
630.768	6.5
631.529	9.5
632.29	7.5
633.051	7.5
633.812	5.5
634.573	7.5
635.333	4.5
636.094	4.5
636.855	7.5
637.615	6.5
638.376	5.5
639.136	4.5
639.896	6.5
640.657	6.5
641.417	4.5
642.177	6.5
642.937	2.5
643.697	5.5
644.457	5.5
645.216	5.5
645.976	4.5
646.736	4.5
647.495	5.5
648.255	4.5
649.014	3.5
649.774	4.5
650.533	5.5
651.292	2.5
652.051	3.5
652.81	3.5
653.569	1.5
654.328	5.5
655.087	3.5
655.846	4.5
656.604	4.5
657.363	4.5
658.121	2.5
658.88	4.5
659.638	2.5
660.397	3.5
661.155	4.5
661.913	2.5
662.671	1.5
663.429	1.5
664.187	2.5
664.945	3.5
665.703	4.5
666.46	3.5
667.218	3.5
667.976	4.5
668.733	3.5
669.49	2.5
670.248	6.5
671.005	1.5
671.762	3.5
672.519	1.5
673.276	5.5
674.033	2.5
674.79	1.5
675.547	2.5
676.304	2.5
677.06	2.5
677.817	1.5
678.574	2.5
679.33	2.5
680.086	-0.5
680.843	2.5
681.599	2.5
682.355	1.5
683.111	1.5
683.867	1.5
684.623	4.5
685.379	1.5
686.135	1.5
686.89	1.5
687.646	4.5
688.402	1.5
689.157	2.5
689.912	4.5
690.668	1.5
691.423	2.5
692.178	1.5
692.933	2.5
693.688	-0.5
694.443	0.5
695.198	2.5
695.953	1.5
696.708	3.5
697.462	0.5
698.217	5.5
698.972	2.5
699.726	3.5
700.48	2.5
701.235	2.5
701.989	2.5
702.743	1.5
703.497	1.5
704.251	3.5
705.005	2.5
705.759	1.5
706.513	1.5
707.266	2.5
708.02	3.5
708.774	1.5
709.527	1.5
710.28	1.5
711.034	-0.5
711.787	2.5
712.54	2.5
713.293	1.5
714.046	1.5
714.799	2.5
715.552	-0.5
716.305	3.5
717.058	0.5
717.81	3.5
718.563	2.5
719.315	0.5
720.068	3.5
720.82	2.5
721.573	-0.5
722.325	1.5
723.077	2.5
723.829	1.5
724.581	0.5
725.333	2.5
726.085	1.5
726.836	-0.5
727.588	1.5
728.34	2.5
729.091	3.5
729.843	3.5
730.594	1.5
731.346	0.5
732.097	2.5
732.848	0.5
733.599	1.5
734.35	3.5
735.101	3.5
735.852	1.5
736.603	1.5
737.354	5.5
738.104	-0.5
738.855	2.5
739.605	1.5
740.356	3.5
741.106	0.5
741.856	3.5
742.607	2.5
743.357	2.5
744.107	1.5
744.857	4.5
745.607	3.5
746.357	4.5
747.106	3.5
747.856	3.5
748.606	3.5
749.355	4.5
750.105	2.5
750.854	1.5
751.603	1.5
752.353	1.5
753.102	4.5
753.851	1.5
754.6	3.5
755.349	2.5
756.098	2.5
756.847	2.5
757.595	1.5
758.344	3.5
759.093	1.5
759.841	4.5
760.589	3.5
761.338	2.5
762.086	7.5
762.834	2.5
763.582	5.5
764.331	5.5
765.079	4.5
765.826	2.5
766.574	3.5
767.322	3.5
768.07	1.5
768.817	5.5
769.565	3.5
770.312	5.5
771.06	5.5
771.807	5.5
772.554	2.5
773.302	5.5
774.049	5.5
774.796	3.5
775.543	5.5
776.29	3.5
777.036	4.5
777.783	5.5
778.53	2.5
779.276	5.5
780.023	4.5
780.769	5.5
781.516	4.5
782.262	6.5
783.008	3.5
783.754	4.5
784.5	6.5
785.246	4.5
785.992	5.5
786.738	5.5
787.484	5.5
788.23	5.5
788.975	3.5
789.721	6.5
790.466	4.5
791.212	4.5
791.957	5.5
792.702	5.5
793.447	5.5
794.193	5.5
794.938	6.5
795.683	4.5
796.427	3.5
797.172	3.5
797.917	4.5
798.662	6.5
799.406	3.5
800.151	5.5
800.895	4.5
801.64	4.5
802.384	6.5
803.128	4.5
803.872	3.5
804.616	4.5
805.36	6.5
806.104	2.5
806.848	3.5
807.592	4.5
808.336	3.5
809.079	5.5
809.823	2.5
810.566	5.5
811.31	3.5
812.053	5.5
812.796	4.5
813.539	6.5
814.283	5.5
815.026	5.5
815.769	4.5
816.511	3.5
817.254	2.5
817.997	4.5
818.74	2.5
819.482	4.5
820.225	2.5
820.967	1.5
821.71	3.5
822.452	1.5
823.194	3.5
823.936	1.5
824.678	2.5
825.42	2.5
826.162	3.5
826.904	2.5
827.646	0.5
828.388	3.5
829.129	1.5
829.871	2.5
830.612	0.5
831.354	3.5
832.095	1.5
832.836	2.5
833.577	3.5
834.319	2.5
835.06	1.5
835.801	1.5
836.542	3.5
837.282	2.5
838.023	2.5
838.764	3.5
839.504	2.5
840.245	3.5
840.985	1.5
841.726	1.5
842.466	0.5
843.206	2.5
843.946	2.5
844.687	1.5
845.427	3.5
846.166	2.5
846.906	2.5
847.646	4.5
848.386	1.5
849.125	5.5
849.865	3.5
850.605	3.5
851.344	1.5
852.083	4.5
852.823	2.5
853.562	1.5
854.301	3.5
855.04	3.5
855.779	3.5
856.518	2.5
857.257	1.5
857.995	2.5
858.734	0.5
859.473	2.5
860.211	3.5
860.95	2.5
861.688	2.5
862.426	3.5
863.165	2.5
863.903	1.5
864.641	0.5
865.379	1.5
866.117	0.5
866.855	0.5
867.593	0.5
868.33	1.5
869.068	2.5
869.806	1.5
870.543	0.5
871.28	0.5
872.018	-0.5
872.755	1.5
873.492	-0.5
874.229	0.5
874.967	0.5
875.703	0.5
876.44	2.5
877.177	0.5
877.914	1.5
878.651	1.5
879.387	-1.5
880.124	1.5
880.86	1.5
881.597	2.5
882.333	2.5
883.069	-0.5
883.806	2.5
884.542	0.5
885.278	1.5
886.014	0.5
886.749	0.5
887.485	0.5
888.221	1.5
888.957	0.5
889.692	0.5
890.428	0.5
891.163	0.5
891.899	1.5
892.634	1.5
893.369	2.5
894.104	-0.5
894.839	0.5
895.574	2.5
896.309	0.5
897.044	0.5
897.779	1.5
898.514	1.5
899.248	1.5
899.983	1.5
900.717	1.5
901.452	2.5
902.186	1.5
902.92	1.5
903.654	-0.5
904.389	-1.5
905.123	0.5
905.857	-0.5
906.59	1.5
907.324	1.5
908.058	1.5
908.792	2.5
909.525	0.5
910.259	-1.5
910.992	1.5
911.726	1.5
912.459	1.5
913.192	-0.5
913.925	-0.5
914.658	2.5
915.391	-0.5
916.124	0.5
916.857	-0.5
917.59	-0.5
918.323	-0.5
919.055	-0.5
919.788	0.5
920.521	-1.5
921.253	1.5
921.985	1.5
922.718	1.5
923.45	-1.5
924.182	-1.5
924.914	2.5
925.646	0.5
926.378	2.5
927.11	0.5
927.841	-0.5
928.573	1.5
929.305	-1.5
930.036	1.5
930.768	1.5
931.499	-0.5
932.23	1.5
932.962	-0.5
933.693	-0.5
934.424	0.5
935.155	1.5
935.886	1.5
936.617	2.5
937.348	1.5
938.078	0.5
938.809	0.5
939.54	1.5
940.27	1.5
941.001	0.5
941.731	2.5
942.461	-0.5
943.191	0.5
943.922	-1.5
944.652	-0.5
945.382	-0.5
946.112	-1.5
946.841	0.5
947.571	1.5
948.301	-0.5
949.031	-1.5
949.76	-1.5
950.49	1.5
951.219	-2.5
951.948	1.5
952.678	-0.5
953.407	-1.5
954.136	3.5
954.865	-0.5
955.594	0.5
956.323	0.5
957.052	2.5
957.78	1.5
958.509	1.5
959.238	-0.5
959.966	-1.5
960.695	0.5
961.423	-2.5
962.151	1.5
962.88	-0.5
963.608	1.5
964.336	0.5
965.064	-1.5
965.792	1.5
966.52	-0.5
967.247	-0.5
967.975	1.5
968.703	0.5
969.43	0.5
970.158	-0.5
970.885	-0.5
971.613	-1.5
972.34	2.5
973.067	-1.5
973.794	1.5
974.521	-0.5
975.248	-0.5
975.975	0.5
976.702	0.5
977.429	1.5
978.156	-1.5
978.882	-0.5
979.609	-0.5
980.335	-1.5
981.062	0.5
981.788	0.5
982.514	-0.5
983.24	0.5
983.967	-0.5
984.693	1.5
985.419	-0.5
986.144	-0.5
986.87	1.5
987.596	2.5
988.322	-1.5
989.047	-1.5
989.773	-1.5
990.498	-0.5
991.224	0.5
991.949	2.5
992.674	-0.5
993.399	0.5
994.124	-1.5
994.849	0.5
995.574	-0.5
996.299	2.5
997.024	2.5
997.749	-0.5
998.473	0.5
999.198	0.5
999.922	0.5
1000.647	0.5
1001.371	3.5
1002.095	-1.5
1002.82	-2.5
1003.544	1.5
1004.268	1.5
1004.992	1.5
1005.716	-0.5
1006.439	0.5
1007.163	-1.5
1007.887	-1.5
1008.611	0.5
1009.334	1.5
1010.058	0.5
1010.781	2.5
1011.504	1.5
1012.228	1.5
1012.951	-2.5
1013.674	1.5
1014.397	0.5
1015.12	-0.5
