节点500_145_QEPB04081__54__11-29-48-728.txt的数据

Date: Wed Nov 12 11:29:48 CST 2025
User: PC
Spectrometer: QEPB0408
触发模式: 0
积分时间 (秒): 1.000000E-2
Scans to average: 1
启用暗噪声校正: true
启用非线性校正: false
滑动平均宽度: 0
X轴模式: Wavelengths
Number of Pixels in Spectrum: 1044
>>>>>Begin Spectral Data<<<<<
220.843	1.88
221.644	-2.12
222.444	0.88
223.244	-1.12
224.045	-0.12
224.845	-2.12
225.645	1.88
226.445	1.88
227.245	-2.12
228.045	-2.12
228.845	0.88
229.645	0.88
230.444	0.88
231.244	-2.12
232.043	1.88
232.843	-0.12
233.642	1.88
234.442	0.88
235.241	0.88
236.04	-0.12
236.839	0.88
237.638	0.88
238.437	2.88
239.236	0.88
240.035	0.88
240.833	1.88
241.632	-0.12
242.43	-1.12
243.229	1.88
244.027	-1.12
244.826	1.88
245.624	2.88
246.422	1.88
247.22	1.88
248.018	1.88
248.816	3.88
249.614	1.88
250.412	1.88
251.21	2.88
252.007	0.88
252.805	3.88
253.602	0.88
254.4	1.88
255.197	1.88
255.994	2.88
256.791	1.88
257.589	3.88
258.386	1.88
259.183	0.88
259.979	3.88
260.776	5.88
261.573	7.88
262.37	4.88
263.166	6.88
263.963	3.88
264.759	7.88
265.556	6.88
266.352	4.88
267.148	5.88
267.944	7.88
268.74	8.88
269.536	8.88
270.332	7.88
271.128	8.88
271.924	7.88
272.719	8.88
273.515	9.88
274.311	8.88
275.106	8.88
275.901	10.88
276.697	9.88
277.492	9.88
278.287	10.88
279.082	10.88
279.877	11.88
280.672	12.88
281.467	9.88
282.262	9.88
283.056	10.88
283.851	12.88
284.646	9.88
285.44	12.88
286.234	11.88
287.029	8.88
287.823	10.88
288.617	9.88
289.411	11.88
290.205	9.88
290.999	10.88
291.793	11.88
292.587	9.88
293.381	12.88
294.174	9.88
294.968	11.88
295.761	7.88
296.555	9.88
297.348	8.88
298.141	8.88
298.935	8.88
299.728	10.88
300.521	9.88
301.314	8.88
302.107	7.88
302.899	7.88
303.692	8.88
304.485	9.88
305.277	8.88
306.07	8.88
306.862	8.88
307.655	7.88
308.447	7.88
309.239	5.88
310.031	9.88
310.823	6.88
311.615	5.88
312.407	5.88
313.199	6.88
313.991	8.88
314.783	5.88
315.574	4.88
316.366	4.88
317.157	5.88
317.949	4.88
318.74	2.88
319.531	5.88
320.322	3.88
321.113	4.88
321.904	6.88
322.695	4.88
323.486	4.88
324.277	2.88
325.068	5.88
325.858	3.88
326.649	4.88
327.439	4.88
328.23	3.88
329.02	5.88
329.81	3.88
330.6	2.88
331.391	6.88
332.181	2.88
332.971	3.88
333.76	2.88
334.55	1.88
335.34	3.88
336.13	4.88
336.919	5.88
337.709	1.88
338.498	2.88
339.287	0.88
340.077	4.88
340.866	1.88
341.655	1.88
342.444	4.88
343.233	3.88
344.022	2.88
344.811	1.88
345.6	5.88
346.388	4.88
347.177	3.88
347.965	4.88
348.754	2.88
349.542	1.88
350.33	4.88
351.119	1.88
351.907	2.88
352.695	3.88
353.483	2.88
354.271	3.88
355.059	3.88
355.846	4.88
356.634	0.88
357.422	3.88
358.209	2.88
358.997	-0.12
359.784	3.88
360.571	4.88
361.359	0.88
362.146	1.88
362.933	2.88
363.72	1.88
364.507	1.88
365.294	1.88
366.081	0.88
366.867	2.88
367.654	3.88
368.44	3.88
369.227	3.88
370.013	1.88
370.8	-0.12
371.586	2.88
372.372	2.88
373.158	2.88
373.944	3.88
374.73	0.88
375.516	1.88
376.302	1.88
377.088	2.88
377.873	1.88
378.659	3.88
379.445	2.88
380.23	4.88
381.015	3.88
381.801	0.88
382.586	1.88
383.371	2.88
384.156	3.88
384.941	2.88
385.726	1.88
386.511	1.88
387.296	2.88
388.08	3.88
388.865	4.88
389.649	2.88
390.434	4.88
391.218	1.88
392.003	1.88
392.787	2.88
393.571	5.88
394.355	1.88
395.139	2.88
395.923	3.88
396.707	2.88
397.491	1.88
398.274	2.88
399.058	2.88
399.842	1.88
400.625	0.88
401.408	2.88
402.192	1.88
402.975	3.88
403.758	3.88
404.541	2.88
405.324	1.88
406.107	1.88
406.89	5.88
407.673	3.88
408.456	7.88
409.238	4.88
410.021	3.88
410.803	3.88
411.586	2.88
412.368	3.88
413.151	5.88
413.933	4.88
414.715	4.88
415.497	5.88
416.279	1.88
417.061	4.88
417.843	5.88
418.624	6.88
419.406	4.88
420.188	8.88
420.969	5.88
421.751	7.88
422.532	6.88
423.313	5.88
424.095	4.88
424.876	7.88
425.657	2.88
426.438	6.88
427.219	6.88
428	5.88
428.78	6.88
429.561	4.88
430.342	5.88
431.122	7.88
431.903	5.88
432.683	9.88
433.464	6.88
434.244	7.88
435.024	6.88
435.804	6.88
436.584	8.88
437.364	7.88
438.144	7.88
438.924	9.88
439.704	12.88
440.483	9.88
441.263	10.88
442.042	13.88
442.822	10.88
443.601	11.88
444.38	9.88
445.16	14.88
445.939	12.88
446.718	16.88
447.497	15.88
448.276	20.88
449.054	21.88
449.833	18.88
450.612	21.88
451.391	27.88
452.169	25.88
452.948	28.88
453.726	32.88
454.504	31.88
455.282	33.88
456.061	39.88
456.839	39.88
457.617	47.88
458.395	52.88
459.172	57.88
459.95	68.88
460.728	75.88
461.506	79.88
462.283	90.88
463.061	99.88
463.838	109.88
464.615	123.88
465.393	143.88
466.17	153.88
466.947	171.88
467.724	192.88
468.501	215.88
469.278	253.88
470.055	276.88
470.831	300.88
471.608	339.88
472.385	378.88
473.161	419.88
473.938	468.88
474.714	527.88
475.49	577.88
476.266	661.88
477.043	741.88
477.819	813.88
478.595	903.88
479.371	997.88
480.146	1121.88
480.922	1246.88
481.698	1383.88
482.473	1517.88
483.249	1689.88
484.024	1881.88
484.8	2073.88
485.575	2304.88
486.35	2564.88
487.126	2825.88
487.901	3169.88
488.676	3501.88
489.451	3869.88
490.225	4248.88
491	4740.88
491.775	5210.88
492.55	5756.88
493.324	6347.88
494.099	6963.88
494.873	7671.88
495.647	8365.88
496.422	9125.88
497.196	9876.88
497.97	10664.88
498.744	11460.88
499.518	12320.88
500.292	13067.88
501.066	13856.88
501.839	14612.88
502.613	15264.88
503.387	15853.88
504.16	16412.88
504.934	16813.88
505.707	17113.88
506.48	17274.88
507.253	17372.88
508.027	17305.88
508.8	17059.88
509.573	16842.88
510.346	16482.88
511.118	15985.88
511.891	15491.88
512.664	14899.88
513.437	14337.88
514.209	13752.88
514.982	13107.88
515.754	12528.88
516.526	11957.88
517.298	11409.88
518.071	10885.88
518.843	10373.88
519.615	9949.88
520.387	9559.88
521.159	9194.88
521.93	8814.88
522.702	8439.88
523.474	8137.88
524.245	7774.88
525.017	7483.88
525.788	7180.88
526.56	6870.88
527.331	6582.88
528.102	6312.88
528.873	6012.88
529.644	5717.88
530.415	5424.88
531.186	5158.88
531.957	4897.88
532.728	4604.88
533.498	4382.88
534.269	4158.88
535.039	3878.88
535.81	3665.88
536.58	3468.88
537.351	3257.88
538.121	3093.88
538.891	2904.88
539.661	2751.88
540.431	2603.88
541.201	2447.88
541.971	2332.88
542.741	2207.88
543.51	2098.88
544.28	1992.88
545.05	1898.88
545.819	1804.88
546.588	1712.88
547.358	1623.88
548.127	1532.88
548.896	1472.88
549.665	1387.88
550.434	1307.88
551.203	1245.88
551.972	1193.88
552.741	1124.88
553.51	1063.88
554.278	1001.88
555.047	950.88
555.815	897.88
556.584	831.88
557.352	795.88
558.121	735.88
558.889	690.88
559.657	658.88
560.425	623.88
561.193	590.88
561.961	543.88
562.729	523.88
563.496	484.88
564.264	463.88
565.032	447.88
565.799	418.88
566.567	396.88
567.334	369.88
568.101	345.88
568.869	322.88
569.636	309.88
570.403	290.88
571.17	274.88
571.937	254.88
572.704	246.88
573.471	227.88
574.237	220.88
575.004	207.88
575.771	198.88
576.537	180.88
577.303	172.88
578.07	160.88
578.836	150.88
579.602	143.88
580.368	135.88
581.134	123.88
581.9	120.88
582.666	115.88
583.432	109.88
584.198	102.88
584.964	95.88
585.729	93.88
586.495	83.88
587.26	82.88
588.025	73.88
588.791	72.88
589.556	64.88
590.321	64.88
591.086	63.88
591.851	60.88
592.616	56.88
593.381	50.88
594.146	49.88
594.911	49.88
595.675	43.88
596.44	46.88
597.204	41.88
597.969	38.88
598.733	41.88
599.497	38.88
600.261	32.88
601.025	30.88
601.79	32.88
602.553	33.88
603.317	25.88
604.081	28.88
604.845	26.88
605.609	25.88
606.372	24.88
607.136	24.88
607.899	17.88
608.662	19.88
609.426	24.88
610.189	18.88
610.952	20.88
611.715	16.88
612.478	16.88
613.241	14.88
614.004	15.88
614.767	12.88
615.529	16.88
616.292	14.88
617.055	14.88
617.817	14.88
618.579	7.88
619.342	12.88
620.104	12.88
620.866	12.88
621.628	9.88
622.39	10.88
623.152	10.88
623.914	7.88
624.676	11.88
625.438	5.88
626.199	8.88
626.961	10.88
627.722	8.88
628.484	9.88
629.245	7.88
630.006	5.88
630.768	6.88
631.529	3.88
632.29	6.88
633.051	8.88
633.812	6.88
634.573	5.88
635.333	3.88
636.094	6.88
636.855	7.88
637.615	6.88
638.376	5.88
639.136	5.88
639.896	6.88
640.657	5.88
641.417	6.88
642.177	7.88
642.937	5.88
643.697	4.88
644.457	5.88
645.216	4.88
645.976	2.88
646.736	5.88
647.495	2.88
648.255	4.88
649.014	4.88
649.774	3.88
650.533	2.88
651.292	3.88
652.051	4.88
652.81	3.88
653.569	3.88
654.328	0.88
655.087	1.88
655.846	2.88
656.604	1.88
657.363	4.88
658.121	2.88
658.88	4.88
659.638	2.88
660.397	1.88
661.155	4.88
661.913	2.88
662.671	2.88
663.429	2.88
664.187	-0.12
664.945	1.88
665.703	0.88
666.46	4.88
667.218	1.88
667.976	4.88
668.733	2.88
669.49	3.88
670.248	2.88
671.005	3.88
671.762	0.88
672.519	0.88
673.276	1.88
674.033	1.88
674.79	1.88
675.547	1.88
676.304	0.88
677.06	2.88
677.817	4.88
678.574	-0.12
679.33	0.88
680.086	2.88
680.843	0.88
681.599	2.88
682.355	3.88
683.111	0.88
683.867	1.88
684.623	1.88
685.379	1.88
686.135	3.88
686.89	0.88
687.646	1.88
688.402	0.88
689.157	2.88
689.912	-0.12
690.668	0.88
691.423	-0.12
692.178	1.88
692.933	2.88
693.688	1.88
694.443	5.88
695.198	2.88
695.953	0.88
696.708	2.88
697.462	4.88
698.217	0.88
698.972	2.88
699.726	0.88
700.48	0.88
701.235	3.88
701.989	3.88
702.743	2.88
703.497	-0.12
704.251	0.88
705.005	1.88
705.759	-0.12
706.513	1.88
707.266	2.88
708.02	1.88
708.774	0.88
709.527	1.88
710.28	2.88
711.034	2.88
711.787	0.88
712.54	2.88
713.293	3.88
714.046	1.88
714.799	-0.12
715.552	1.88
716.305	1.88
717.058	1.88
717.81	1.88
718.563	1.88
719.315	2.88
720.068	1.88
720.82	0.88
721.573	0.88
722.325	1.88
723.077	1.88
723.829	3.88
724.581	0.88
725.333	1.88
726.085	-1.12
726.836	1.88
727.588	2.88
728.34	1.88
729.091	1.88
729.843	0.88
730.594	0.88
731.346	1.88
732.097	3.88
732.848	3.88
733.599	1.88
734.35	3.88
735.101	-0.12
735.852	2.88
736.603	1.88
737.354	0.88
738.104	2.88
738.855	1.88
739.605	1.88
740.356	1.88
741.106	2.88
741.856	2.88
742.607	2.88
743.357	2.88
744.107	-0.12
744.857	2.88
745.607	-0.12
746.357	2.88
747.106	3.88
747.856	3.88
748.606	0.88
749.355	1.88
750.105	3.88
750.854	3.88
751.603	3.88
752.353	2.88
753.102	3.88
753.851	3.88
754.6	3.88
755.349	4.88
756.098	1.88
756.847	3.88
757.595	3.88
758.344	2.88
759.093	1.88
759.841	3.88
760.589	4.88
761.338	2.88
762.086	1.88
762.834	0.88
763.582	2.88
764.331	5.88
765.079	4.88
765.826	2.88
766.574	3.88
767.322	3.88
768.07	4.88
768.817	3.88
769.565	3.88
770.312	2.88
771.06	4.88
771.807	4.88
772.554	4.88
773.302	2.88
774.049	3.88
774.796	3.88
775.543	5.88
776.29	4.88
777.036	1.88
777.783	4.88
778.53	4.88
779.276	3.88
780.023	2.88
780.769	3.88
781.516	4.88
782.262	4.88
783.008	3.88
783.754	5.88
784.5	3.88
785.246	4.88
785.992	4.88
786.738	4.88
787.484	2.88
788.23	5.88
788.975	4.88
789.721	4.88
790.466	4.88
791.212	1.88
791.957	2.88
792.702	4.88
793.447	4.88
794.193	4.88
794.938	5.88
795.683	5.88
796.427	5.88
797.172	5.88
797.917	3.88
798.662	4.88
799.406	5.88
800.151	2.88
800.895	6.88
801.64	4.88
802.384	3.88
803.128	5.88
803.872	1.88
804.616	3.88
805.36	4.88
806.104	5.88
806.848	3.88
807.592	5.88
808.336	3.88
809.079	2.88
809.823	3.88
810.566	1.88
811.31	1.88
812.053	3.88
812.796	2.88
813.539	4.88
814.283	3.88
815.026	4.88
815.769	4.88
816.511	5.88
817.254	2.88
817.997	2.88
818.74	0.88
819.482	1.88
820.225	1.88
820.967	3.88
821.71	2.88
822.452	0.88
823.194	0.88
823.936	3.88
824.678	2.88
825.42	2.88
826.162	2.88
826.904	2.88
827.646	3.88
828.388	3.88
829.129	2.88
829.871	2.88
830.612	0.88
831.354	1.88
832.095	2.88
832.836	2.88
833.577	0.88
834.319	2.88
835.06	1.88
835.801	0.88
836.542	1.88
837.282	2.88
838.023	0.88
838.764	0.88
839.504	3.88
840.245	0.88
840.985	2.88
841.726	3.88
842.466	3.88
843.206	1.88
843.946	1.88
844.687	1.88
845.427	-0.12
846.166	2.88
846.906	1.88
847.646	2.88
848.386	2.88
849.125	-0.12
849.865	1.88
850.605	-0.12
851.344	1.88
852.083	-0.12
852.823	2.88
853.562	2.88
854.301	0.88
855.04	1.88
855.779	-1.12
856.518	2.88
857.257	1.88
857.995	0.88
858.734	-0.12
859.473	2.88
860.211	2.88
860.95	-0.12
861.688	1.88
862.426	2.88
863.165	0.88
863.903	1.88
864.641	1.88
865.379	0.88
866.117	2.88
866.855	2.88
867.593	1.88
868.33	1.88
869.068	0.88
869.806	1.88
870.543	2.88
871.28	-0.12
872.018	0.88
872.755	0.88
873.492	-0.12
874.229	0.88
874.967	0.88
875.703	-0.12
876.44	-2.12
877.177	0.88
877.914	0.88
878.651	-2.12
879.387	0.88
880.124	-0.12
880.86	-0.12
881.597	1.88
882.333	-0.12
883.069	0.88
883.806	-0.12
884.542	-0.12
885.278	-1.12
886.014	0.88
886.749	-0.12
887.485	0.88
888.221	2.88
888.957	1.88
889.692	1.88
890.428	-2.12
891.163	0.88
891.899	0.88
892.634	-0.12
893.369	1.88
894.104	1.88
894.839	-0.12
895.574	-0.12
896.309	0.88
897.044	-2.12
897.779	-0.12
898.514	1.88
899.248	-1.12
899.983	-2.12
900.717	-1.12
901.452	0.88
902.186	1.88
902.92	-0.12
903.654	2.88
904.389	-2.12
905.123	2.88
905.857	-1.12
906.59	0.88
907.324	-0.12
908.058	0.88
908.792	-0.12
909.525	0.88
910.259	0.88
910.992	-0.12
911.726	-0.12
912.459	0.88
913.192	0.88
913.925	1.88
914.658	-0.12
915.391	-1.12
916.124	-1.12
916.857	0.88
917.59	0.88
918.323	-0.12
919.055	0.88
919.788	-0.12
920.521	0.88
921.253	0.88
921.985	-0.12
922.718	1.88
923.45	-1.12
924.182	0.88
924.914	-1.12
925.646	-1.12
926.378	-0.12
927.11	0.88
927.841	0.88
928.573	-0.12
929.305	0.88
930.036	0.88
930.768	-0.12
931.499	0.88
932.23	-0.12
932.962	-0.12
933.693	-3.12
934.424	-0.12
935.155	-1.12
935.886	0.88
936.617	0.88
937.348	-1.12
938.078	1.88
938.809	-2.12
939.54	-0.12
940.27	-0.12
941.001	-1.12
941.731	1.88
942.461	0.88
943.191	-0.12
943.922	-2.12
944.652	-0.12
945.382	-2.12
946.112	-1.12
946.841	1.88
947.571	-2.12
948.301	0.88
949.031	-2.12
949.76	0.88
950.49	-1.12
951.219	0.88
951.948	0.88
952.678	-2.12
953.407	0.88
954.136	-0.12
954.865	-1.12
955.594	0.88
956.323	0.88
957.052	-0.12
957.78	0.88
958.509	1.88
959.238	-2.12
959.966	-0.12
960.695	-1.12
961.423	-2.12
962.151	1.88
962.88	-1.12
963.608	0.88
964.336	-0.12
965.064	2.88
965.792	-0.12
966.52	-0.12
967.247	1.88
967.975	-1.12
968.703	-0.12
969.43	0.88
970.158	-0.12
970.885	0.88
971.613	-0.12
972.34	-1.12
973.067	-0.12
973.794	-0.12
974.521	-2.12
975.248	-0.12
975.975	-1.12
976.702	-2.12
977.429	-0.12
978.156	-2.12
978.882	-1.12
979.609	-0.12
980.335	1.88
981.062	-0.12
981.788	-1.12
982.514	0.88
983.24	-1.12
983.967	-0.12
984.693	0.88
985.419	0.88
986.144	1.88
986.87	-1.12
987.596	-0.12
988.322	0.88
989.047	0.88
989.773	-0.12
990.498	-0.12
991.224	0.88
991.949	-1.12
992.674	1.88
993.399	-1.12
994.124	1.88
994.849	-0.12
995.574	-1.12
996.299	-1.12
997.024	0.88
997.749	1.88
998.473	-0.12
999.198	0.88
999.922	0.88
1000.647	-2.12
1001.371	3.88
1002.095	-1.12
1002.82	2.88
1003.544	-2.12
1004.268	-1.12
1004.992	-0.12
1005.716	-2.12
1006.439	0.88
1007.163	-0.12
1007.887	-0.12
1008.611	0.88
1009.334	-1.12
1010.058	0.88
1010.781	-0.12
1011.504	-1.12
1012.228	-0.12
1012.951	-1.12
1013.674	-1.12
1014.397	-1.12
1015.12	-0.12
