节点500_145_QEPB04081__30__11-29-25-791.txt的数据

Date: Wed Nov 12 11:29:25 CST 2025
User: PC
Spectrometer: QEPB0408
触发模式: 0
积分时间 (秒): 1.000000E-2
Scans to average: 1
启用暗噪声校正: true
启用非线性校正: false
滑动平均宽度: 0
X轴模式: Wavelengths
Number of Pixels in Spectrum: 1044
>>>>>Begin Spectral Data<<<<<
220.843	1
221.644	-2
222.444	-2
223.244	1
224.045	2
224.845	1
225.645	1
226.445	-1
227.245	-2
228.045	0
228.845	0
229.645	1
230.444	0
231.244	0
232.043	1
232.843	0
233.642	2
234.442	-1
235.241	4
236.04	0
236.839	0
237.638	2
238.437	0
239.236	2
240.035	1
240.833	1
241.632	1
242.43	1
243.229	2
244.027	0
244.826	1
245.624	2
246.422	1
247.22	1
248.018	0
248.816	1
249.614	2
250.412	1
251.21	1
252.007	2
252.805	3
253.602	3
254.4	3
255.197	3
255.994	3
256.791	2
257.589	7
258.386	3
259.183	3
259.979	4
260.776	4
261.573	6
262.37	6
263.166	7
263.963	5
264.759	6
265.556	6
266.352	3
267.148	7
267.944	7
268.74	8
269.536	7
270.332	8
271.128	9
271.924	6
272.719	7
273.515	8
274.311	8
275.106	8
275.901	8
276.697	10
277.492	10
278.287	9
279.082	10
279.877	12
280.672	14
281.467	9
282.262	13
283.056	11
283.851	11
284.646	13
285.44	9
286.234	12
287.029	8
287.823	14
288.617	11
289.411	12
290.205	13
290.999	11
291.793	12
292.587	11
293.381	10
294.174	11
294.968	8
295.761	9
296.555	10
297.348	10
298.141	10
298.935	11
299.728	8
300.521	7
301.314	6
302.107	10
302.899	11
303.692	9
304.485	11
305.277	9
306.07	9
306.862	7
307.655	9
308.447	10
309.239	8
310.031	9
310.823	7
311.615	6
312.407	6
313.199	6
313.991	5
314.783	7
315.574	6
316.366	7
317.157	5
317.949	4
318.74	6
319.531	6
320.322	6
321.113	6
321.904	4
322.695	5
323.486	7
324.277	4
325.068	4
325.858	5
326.649	3
327.439	5
328.23	5
329.02	6
329.81	4
330.6	4
331.391	6
332.181	3
332.971	4
333.76	4
334.55	5
335.34	2
336.13	1
336.919	3
337.709	2
338.498	4
339.287	3
340.077	3
340.866	3
341.655	5
342.444	1
343.233	3
344.022	2
344.811	2
345.6	3
346.388	4
347.177	2
347.965	5
348.754	4
349.542	5
350.33	2
351.119	4
351.907	0
352.695	1
353.483	3
354.271	1
355.059	2
355.846	2
356.634	3
357.422	4
358.209	4
358.997	4
359.784	3
360.571	3
361.359	2
362.146	2
362.933	2
363.72	3
364.507	3
365.294	3
366.081	2
366.867	2
367.654	2
368.44	2
369.227	3
370.013	2
370.8	1
371.586	5
372.372	1
373.158	2
373.944	0
374.73	0
375.516	3
376.302	0
377.088	3
377.873	4
378.659	2
379.445	2
380.23	1
381.015	2
381.801	1
382.586	3
383.371	2
384.156	-1
384.941	3
385.726	4
386.511	4
387.296	0
388.08	3
388.865	2
389.649	2
390.434	4
391.218	1
392.003	3
392.787	3
393.571	2
394.355	5
395.139	2
395.923	6
396.707	1
397.491	2
398.274	3
399.058	3
399.842	6
400.625	2
401.408	5
402.192	2
402.975	5
403.758	5
404.541	0
405.324	3
406.107	5
406.89	5
407.673	5
408.456	6
409.238	5
410.021	3
410.803	5
411.586	4
412.368	4
413.151	4
413.933	5
414.715	4
415.497	4
416.279	3
417.061	2
417.843	4
418.624	5
419.406	6
420.188	7
420.969	5
421.751	6
422.532	6
423.313	9
424.095	5
424.876	7
425.657	5
426.438	5
427.219	8
428	6
428.78	9
429.561	6
430.342	9
431.122	8
431.903	9
432.683	10
433.464	10
434.244	8
435.024	8
435.804	9
436.584	12
437.364	8
438.144	11
438.924	10
439.704	10
440.483	13
441.263	13
442.042	14
442.822	12
443.601	13
444.38	14
445.16	15
445.939	15
446.718	16
447.497	19
448.276	17
449.054	19
449.833	23
450.612	22
451.391	25
452.169	26
452.948	31
453.726	30
454.504	33
455.282	36
456.061	42
456.839	44
457.617	49
458.395	52
459.172	59
459.95	66
460.728	70
461.506	82
462.283	91
463.061	97
463.838	107
464.615	122
465.393	137
466.17	152
466.947	171
467.724	194
468.501	215
469.278	237
470.055	267
470.831	293
471.608	339
472.385	361
473.161	418
473.938	464
474.714	523
475.49	577
476.266	655
477.043	715
477.819	801
478.595	902
479.371	999
480.146	1116
480.922	1231
481.698	1379
482.473	1530
483.249	1684
484.024	1877
484.8	2100
485.575	2322
486.35	2579
487.126	2866
487.901	3176
488.676	3517
489.451	3894
490.225	4346
491	4786
491.775	5274
492.55	5826
493.324	6407
494.099	7067
494.873	7739
495.647	8510
496.422	9255
497.196	10024
497.97	10866
498.744	11685
499.518	12536
500.292	13332
501.066	14101
501.839	14831
502.613	15528
503.387	16178
504.16	16657
504.934	17052
505.707	17316
506.48	17499
507.253	17493
508.027	17472
508.8	17200
509.573	16951
510.346	16507
511.118	16019
511.891	15469
512.664	14866
513.437	14305
514.209	13699
514.982	13053
515.754	12397
516.526	11830
517.298	11295
518.071	10785
518.843	10309
519.615	9883
520.387	9459
521.159	9097
521.93	8734
522.702	8414
523.474	8064
524.245	7763
525.017	7427
525.788	7158
526.56	6864
527.331	6536
528.102	6209
528.873	5961
529.644	5714
530.415	5401
531.186	5111
531.957	4865
532.728	4601
533.498	4327
534.269	4088
535.039	3848
535.81	3639
536.58	3424
537.351	3238
538.121	3030
538.891	2891
539.661	2711
540.431	2562
541.201	2430
541.971	2306
542.741	2180
543.51	2073
544.28	1962
545.05	1876
545.819	1777
546.588	1693
547.358	1618
548.127	1522
548.896	1455
549.665	1370
550.434	1297
551.203	1246
551.972	1181
552.741	1103
553.51	1057
554.278	985
555.047	935
555.815	878
556.584	830
557.352	784
558.121	729
558.889	684
559.657	641
560.425	611
561.193	576
561.961	542
562.729	507
563.496	480
564.264	463
565.032	427
565.799	404
566.567	379
567.334	357
568.101	341
568.869	330
569.636	302
570.403	297
571.17	274
571.937	261
572.704	246
573.471	225
574.237	219
575.004	203
575.771	186
576.537	177
577.303	168
578.07	158
578.836	150
579.602	140
580.368	136
581.134	128
581.9	120
582.666	111
583.432	105
584.198	97
584.964	92
585.729	92
586.495	86
587.26	82
588.025	76
588.791	70
589.556	68
590.321	66
591.086	59
591.851	61
592.616	56
593.381	49
594.146	44
594.911	48
595.675	43
596.44	41
597.204	39
597.969	41
598.733	38
599.497	36
600.261	37
601.025	34
601.79	31
602.553	30
603.317	28
604.081	29
604.845	25
605.609	27
606.372	26
607.136	25
607.899	21
608.662	20
609.426	19
610.189	18
610.952	19
611.715	16
612.478	17
613.241	16
614.004	15
614.767	18
615.529	14
616.292	15
617.055	17
617.817	13
618.579	13
619.342	12
620.104	12
620.866	11
621.628	13
622.39	14
623.152	10
623.914	10
624.676	9
625.438	9
626.199	8
626.961	10
627.722	10
628.484	9
629.245	10
630.006	9
630.768	11
631.529	7
632.29	7
633.051	8
633.812	4
634.573	7
635.333	6
636.094	9
636.855	3
637.615	4
638.376	6
639.136	5
639.896	5
640.657	8
641.417	4
642.177	6
642.937	2
643.697	7
644.457	4
645.216	6
645.976	5
646.736	5
647.495	3
648.255	6
649.014	5
649.774	2
650.533	3
651.292	3
652.051	5
652.81	3
653.569	3
654.328	5
655.087	6
655.846	5
656.604	2
657.363	2
658.121	6
658.88	5
659.638	2
660.397	2
661.155	3
661.913	1
662.671	2
663.429	4
664.187	3
664.945	5
665.703	5
666.46	4
667.218	2
667.976	3
668.733	4
669.49	3
670.248	2
671.005	3
671.762	1
672.519	3
673.276	3
674.033	3
674.79	0
675.547	5
676.304	2
677.06	4
677.817	3
678.574	1
679.33	4
680.086	2
680.843	1
681.599	2
682.355	2
683.111	2
683.867	3
684.623	4
685.379	3
686.135	3
686.89	4
687.646	3
688.402	0
689.157	3
689.912	3
690.668	3
691.423	1
692.178	2
692.933	-1
693.688	2
694.443	2
695.198	2
695.953	1
696.708	3
697.462	2
698.217	1
698.972	5
699.726	1
700.48	4
701.235	1
701.989	1
702.743	4
703.497	2
704.251	3
705.005	1
705.759	3
706.513	2
707.266	1
708.02	2
708.774	0
709.527	2
710.28	2
711.034	-1
711.787	3
712.54	1
713.293	4
714.046	2
714.799	4
715.552	1
716.305	2
717.058	3
717.81	0
718.563	3
719.315	4
720.068	2
720.82	2
721.573	1
722.325	2
723.077	1
723.829	1
724.581	1
725.333	2
726.085	2
726.836	4
727.588	4
728.34	2
729.091	3
729.843	0
730.594	0
731.346	2
732.097	2
732.848	3
733.599	2
734.35	3
735.101	1
735.852	1
736.603	2
737.354	3
738.104	2
738.855	1
739.605	5
740.356	1
741.106	1
741.856	3
742.607	1
743.357	5
744.107	2
744.857	3
745.607	3
746.357	3
747.106	3
747.856	3
748.606	4
749.355	2
750.105	3
750.854	3
751.603	2
752.353	5
753.102	1
753.851	4
754.6	5
755.349	1
756.098	2
756.847	3
757.595	4
758.344	0
759.093	3
759.841	3
760.589	4
761.338	4
762.086	3
762.834	5
763.582	3
764.331	5
765.079	1
765.826	5
766.574	5
767.322	6
768.07	5
768.817	3
769.565	2
770.312	4
771.06	3
771.807	6
772.554	3
773.302	6
774.049	6
774.796	6
775.543	4
776.29	5
777.036	6
777.783	5
778.53	9
779.276	4
780.023	5
780.769	6
781.516	3
782.262	5
783.008	6
783.754	9
784.5	5
785.246	4
785.992	7
786.738	6
787.484	5
788.23	4
788.975	6
789.721	6
790.466	5
791.212	6
791.957	5
792.702	6
793.447	6
794.193	8
794.938	7
795.683	5
796.427	4
797.172	5
797.917	7
798.662	7
799.406	5
800.151	5
800.895	5
801.64	6
802.384	7
803.128	5
803.872	4
804.616	6
805.36	5
806.104	3
806.848	5
807.592	4
808.336	4
809.079	5
809.823	4
810.566	5
811.31	3
812.053	7
812.796	4
813.539	5
814.283	4
815.026	3
815.769	3
816.511	2
817.254	4
817.997	3
818.74	2
819.482	3
820.225	3
820.967	4
821.71	1
822.452	5
823.194	2
823.936	2
824.678	3
825.42	2
826.162	3
826.904	5
827.646	3
828.388	3
829.129	1
829.871	1
830.612	-1
831.354	0
832.095	3
832.836	3
833.577	3
834.319	1
835.06	3
835.801	1
836.542	3
837.282	1
838.023	1
838.764	2
839.504	3
840.245	1
840.985	1
841.726	4
842.466	3
843.206	2
843.946	-1
844.687	1
845.427	4
846.166	4
846.906	1
847.646	3
848.386	1
849.125	2
849.865	1
850.605	1
851.344	0
852.083	1
852.823	2
853.562	2
854.301	-1
855.04	0
855.779	1
856.518	2
857.257	3
857.995	1
858.734	2
859.473	2
860.211	0
860.95	2
861.688	0
862.426	3
863.165	2
863.903	0
864.641	1
865.379	1
866.117	2
866.855	-1
867.593	1
868.33	1
869.068	-1
869.806	0
870.543	2
871.28	2
872.018	-1
872.755	-1
873.492	2
874.229	2
874.967	2
875.703	1
876.44	1
877.177	2
877.914	0
878.651	1
879.387	-2
880.124	2
880.86	0
881.597	3
882.333	1
883.069	2
883.806	-2
884.542	2
885.278	-2
886.014	0
886.749	2
887.485	-1
888.221	1
888.957	-1
889.692	1
890.428	1
891.163	1
891.899	0
892.634	0
893.369	1
894.104	2
894.839	1
895.574	-1
896.309	-1
897.044	3
897.779	1
898.514	2
899.248	1
899.983	-1
900.717	2
901.452	0
902.186	-2
902.92	0
903.654	-1
904.389	1
905.123	-3
905.857	1
906.59	1
907.324	-2
908.058	2
908.792	-1
909.525	1
910.259	0
910.992	0
911.726	1
912.459	1
913.192	1
913.925	1
914.658	2
915.391	1
916.124	2
916.857	1
917.59	-1
918.323	1
919.055	1
919.788	2
920.521	1
921.253	1
921.985	1
922.718	2
923.45	1
924.182	1
924.914	0
925.646	0
926.378	-1
927.11	0
927.841	1
928.573	1
929.305	0
930.036	0
930.768	0
931.499	0
932.23	1
932.962	-1
933.693	-2
934.424	0
935.155	0
935.886	1
936.617	1
937.348	1
938.078	-1
938.809	0
939.54	-1
940.27	3
941.001	-1
941.731	0
942.461	0
943.191	0
943.922	0
944.652	0
945.382	-1
946.112	-1
946.841	-3
947.571	0
948.301	0
949.031	-1
949.76	1
950.49	1
951.219	2
951.948	0
952.678	-1
953.407	1
954.136	0
954.865	0
955.594	-1
956.323	-1
957.052	1
957.78	0
958.509	1
959.238	2
959.966	0
960.695	0
961.423	3
962.151	1
962.88	3
963.608	2
964.336	-1
965.064	0
965.792	-1
966.52	1
967.247	0
967.975	1
968.703	0
969.43	0
970.158	-1
970.885	0
971.613	0
972.34	0
973.067	1
973.794	0
974.521	2
975.248	1
975.975	0
976.702	0
977.429	0
978.156	0
978.882	1
979.609	0
980.335	0
981.062	-1
981.788	1
982.514	1
983.24	-1
983.967	1
984.693	-1
985.419	1
986.144	1
986.87	2
987.596	-1
988.322	-2
989.047	0
989.773	2
990.498	0
991.224	0
991.949	0
992.674	0
993.399	2
994.124	0
994.849	-1
995.574	-2
996.299	2
997.024	0
997.749	0
998.473	2
999.198	0
999.922	0
1000.647	1
1001.371	3
1002.095	-2
1002.82	0
1003.544	-3
1004.268	-2
1004.992	2
1005.716	0
1006.439	1
1007.163	0
1007.887	1
1008.611	-1
1009.334	1
1010.058	-1
1010.781	-1
1011.504	-1
1012.228	0
1012.951	0
1013.674	0
1014.397	1
1015.12	1
