节点500_145_QEPB04081__705__11-40-08-657.txt的数据

Date: Wed Nov 12 11:40:08 CST 2025
User: PC
Spectrometer: QEPB0408
触发模式: 0
积分时间 (秒): 1.000000E-2
Scans to average: 1
启用暗噪声校正: true
启用非线性校正: false
滑动平均宽度: 0
X轴模式: Wavelengths
Number of Pixels in Spectrum: 1044
>>>>>Begin Spectral Data<<<<<
220.843	-1.12
221.644	-1.12
222.444	-2.12
223.244	-0.12
224.045	1.88
224.845	-0.12
225.645	-0.12
226.445	-0.12
227.245	-1.12
228.045	1.88
228.845	0.88
229.645	2.88
230.444	0.88
231.244	0.88
232.043	1.88
232.843	-1.12
233.642	3.88
234.442	-0.12
235.241	0.88
236.04	1.88
236.839	1.88
237.638	-0.12
238.437	1.88
239.236	2.88
240.035	1.88
240.833	3.88
241.632	0.88
242.43	2.88
243.229	2.88
244.027	0.88
244.826	1.88
245.624	3.88
246.422	0.88
247.22	0.88
248.018	1.88
248.816	1.88
249.614	1.88
250.412	3.88
251.21	2.88
252.007	-0.12
252.805	3.88
253.602	3.88
254.4	2.88
255.197	-0.12
255.994	2.88
256.791	0.88
257.589	3.88
258.386	3.88
259.183	2.88
259.979	4.88
260.776	1.88
261.573	4.88
262.37	3.88
263.166	3.88
263.963	4.88
264.759	2.88
265.556	6.88
266.352	6.88
267.148	6.88
267.944	7.88
268.74	7.88
269.536	6.88
270.332	5.88
271.128	8.88
271.924	4.88
272.719	6.88
273.515	6.88
274.311	8.88
275.106	6.88
275.901	6.88
276.697	7.88
277.492	7.88
278.287	8.88
279.082	8.88
279.877	10.88
280.672	9.88
281.467	9.88
282.262	7.88
283.056	8.88
283.851	10.88
284.646	9.88
285.44	9.88
286.234	10.88
287.029	7.88
287.823	9.88
288.617	9.88
289.411	9.88
290.205	10.88
290.999	10.88
291.793	10.88
292.587	10.88
293.381	11.88
294.174	9.88
294.968	9.88
295.761	9.88
296.555	8.88
297.348	10.88
298.141	7.88
298.935	10.88
299.728	8.88
300.521	7.88
301.314	8.88
302.107	10.88
302.899	8.88
303.692	7.88
304.485	8.88
305.277	6.88
306.07	8.88
306.862	8.88
307.655	8.88
308.447	6.88
309.239	6.88
310.031	6.88
310.823	6.88
311.615	6.88
312.407	8.88
313.199	4.88
313.991	7.88
314.783	4.88
315.574	6.88
316.366	5.88
317.157	5.88
317.949	5.88
318.74	4.88
319.531	5.88
320.322	3.88
321.113	4.88
321.904	4.88
322.695	3.88
323.486	5.88
324.277	4.88
325.068	3.88
325.858	5.88
326.649	4.88
327.439	5.88
328.23	5.88
329.02	2.88
329.81	3.88
330.6	2.88
331.391	5.88
332.181	4.88
332.971	3.88
333.76	5.88
334.55	4.88
335.34	4.88
336.13	2.88
336.919	2.88
337.709	4.88
338.498	3.88
339.287	5.88
340.077	3.88
340.866	4.88
341.655	2.88
342.444	2.88
343.233	4.88
344.022	2.88
344.811	4.88
345.6	2.88
346.388	2.88
347.177	5.88
347.965	2.88
348.754	2.88
349.542	3.88
350.33	4.88
351.119	2.88
351.907	1.88
352.695	2.88
353.483	2.88
354.271	3.88
355.059	4.88
355.846	1.88
356.634	4.88
357.422	3.88
358.209	2.88
358.997	3.88
359.784	2.88
360.571	4.88
361.359	-0.12
362.146	2.88
362.933	1.88
363.72	4.88
364.507	3.88
365.294	4.88
366.081	0.88
366.867	1.88
367.654	2.88
368.44	2.88
369.227	1.88
370.013	1.88
370.8	2.88
371.586	3.88
372.372	2.88
373.158	2.88
373.944	1.88
374.73	2.88
375.516	2.88
376.302	0.88
377.088	1.88
377.873	3.88
378.659	2.88
379.445	3.88
380.23	5.88
381.015	2.88
381.801	1.88
382.586	2.88
383.371	2.88
384.156	3.88
384.941	0.88
385.726	2.88
386.511	2.88
387.296	3.88
388.08	-0.12
388.865	3.88
389.649	4.88
390.434	2.88
391.218	2.88
392.003	2.88
392.787	2.88
393.571	4.88
394.355	4.88
395.139	4.88
395.923	4.88
396.707	5.88
397.491	1.88
398.274	1.88
399.058	3.88
399.842	1.88
400.625	5.88
401.408	1.88
402.192	3.88
402.975	4.88
403.758	4.88
404.541	1.88
405.324	1.88
406.107	2.88
406.89	3.88
407.673	2.88
408.456	6.88
409.238	2.88
410.021	5.88
410.803	2.88
411.586	3.88
412.368	2.88
413.151	3.88
413.933	2.88
414.715	4.88
415.497	2.88
416.279	4.88
417.061	4.88
417.843	3.88
418.624	4.88
419.406	5.88
420.188	6.88
420.969	4.88
421.751	4.88
422.532	4.88
423.313	5.88
424.095	4.88
424.876	6.88
425.657	3.88
426.438	7.88
427.219	6.88
428	7.88
428.78	7.88
429.561	9.88
430.342	7.88
431.122	6.88
431.903	6.88
432.683	7.88
433.464	8.88
434.244	8.88
435.024	7.88
435.804	9.88
436.584	8.88
437.364	10.88
438.144	9.88
438.924	12.88
439.704	10.88
440.483	12.88
441.263	10.88
442.042	9.88
442.822	14.88
443.601	16.88
444.38	14.88
445.16	17.88
445.939	17.88
446.718	18.88
447.497	19.88
448.276	19.88
449.054	22.88
449.833	25.88
450.612	25.88
451.391	28.88
452.169	30.88
452.948	33.88
453.726	40.88
454.504	39.88
455.282	44.88
456.061	53.88
456.839	51.88
457.617	62.88
458.395	67.88
459.172	78.88
459.95	86.88
460.728	93.88
461.506	101.88
462.283	114.88
463.061	127.88
463.838	142.88
464.615	155.88
465.393	174.88
466.17	202.88
466.947	220.88
467.724	241.88
468.501	273.88
469.278	299.88
470.055	321.88
470.831	369.88
471.608	408.88
472.385	438.88
473.161	491.88
473.938	537.88
474.714	601.88
475.49	661.88
476.266	726.88
477.043	799.88
477.819	874.88
478.595	967.88
479.371	1069.88
480.146	1155.88
480.922	1292.88
481.698	1395.88
482.473	1521.88
483.249	1669.88
484.024	1812.88
484.8	2002.88
485.575	2169.88
486.35	2384.88
487.126	2609.88
487.901	2851.88
488.676	3107.88
489.451	3365.88
490.225	3668.88
491	4022.88
491.775	4393.88
492.55	4764.88
493.324	5186.88
494.099	5649.88
494.873	6124.88
495.647	6605.88
496.422	7194.88
497.196	7731.88
497.97	8314.88
498.744	8962.88
499.518	9550.88
500.292	10242.88
501.066	10850.88
501.839	11445.88
502.613	12021.88
503.387	12596.88
504.16	13169.88
504.934	13626.88
505.707	14036.88
506.48	14474.88
507.253	14687.88
508.027	14876.88
508.8	14997.88
509.573	14996.88
510.346	14952.88
511.118	14819.88
511.891	14590.88
512.664	14229.88
513.437	13947.88
514.209	13466.88
514.982	13085.88
515.754	12607.88
516.526	12173.88
517.298	11649.88
518.071	11215.88
518.843	10755.88
519.615	10256.88
520.387	9865.88
521.159	9467.88
521.93	9076.88
522.702	8742.88
523.474	8445.88
524.245	8031.88
525.017	7749.88
525.788	7421.88
526.56	7132.88
527.331	6885.88
528.102	6588.88
528.873	6320.88
529.644	6039.88
530.415	5760.88
531.186	5497.88
531.957	5300.88
532.728	5019.88
533.498	4761.88
534.269	4523.88
535.039	4297.88
535.81	4067.88
536.58	3836.88
537.351	3627.88
538.121	3437.88
538.891	3267.88
539.661	3072.88
540.431	2924.88
541.201	2754.88
541.971	2624.88
542.741	2466.88
543.51	2331.88
544.28	2239.88
545.05	2134.88
545.819	2010.88
546.588	1925.88
547.358	1801.88
548.127	1714.88
548.896	1646.88
549.665	1555.88
550.434	1492.88
551.203	1408.88
551.972	1327.88
552.741	1270.88
553.51	1199.88
554.278	1148.88
555.047	1078.88
555.815	1026.88
556.584	965.88
557.352	908.88
558.121	857.88
558.889	809.88
559.657	764.88
560.425	722.88
561.193	680.88
561.961	647.88
562.729	603.88
563.496	581.88
564.264	539.88
565.032	502.88
565.799	487.88
566.567	448.88
567.334	432.88
568.101	407.88
568.869	386.88
569.636	357.88
570.403	339.88
571.17	325.88
571.937	296.88
572.704	288.88
573.471	269.88
574.237	257.88
575.004	240.88
575.771	228.88
576.537	210.88
577.303	197.88
578.07	188.88
578.836	175.88
579.602	169.88
580.368	158.88
581.134	151.88
581.9	140.88
582.666	138.88
583.432	129.88
584.198	118.88
584.964	111.88
585.729	109.88
586.495	103.88
587.26	95.88
588.025	93.88
588.791	80.88
589.556	78.88
590.321	74.88
591.086	67.88
591.851	68.88
592.616	67.88
593.381	61.88
594.146	56.88
594.911	53.88
595.675	53.88
596.44	53.88
597.204	47.88
597.969	46.88
598.733	43.88
599.497	41.88
600.261	42.88
601.025	38.88
601.79	37.88
602.553	33.88
603.317	34.88
604.081	34.88
604.845	27.88
605.609	27.88
606.372	28.88
607.136	27.88
607.899	26.88
608.662	26.88
609.426	22.88
610.189	21.88
610.952	21.88
611.715	18.88
612.478	19.88
613.241	19.88
614.004	20.88
614.767	15.88
615.529	18.88
616.292	14.88
617.055	14.88
617.817	15.88
618.579	15.88
619.342	14.88
620.104	12.88
620.866	10.88
621.628	12.88
622.39	14.88
623.152	9.88
623.914	10.88
624.676	12.88
625.438	10.88
626.199	7.88
626.961	9.88
627.722	9.88
628.484	9.88
629.245	8.88
630.006	7.88
630.768	7.88
631.529	11.88
632.29	6.88
633.051	7.88
633.812	7.88
634.573	6.88
635.333	5.88
636.094	6.88
636.855	7.88
637.615	6.88
638.376	5.88
639.136	3.88
639.896	7.88
640.657	4.88
641.417	5.88
642.177	6.88
642.937	5.88
643.697	2.88
644.457	5.88
645.216	4.88
645.976	3.88
646.736	5.88
647.495	4.88
648.255	3.88
649.014	2.88
649.774	4.88
650.533	3.88
651.292	5.88
652.051	3.88
652.81	1.88
653.569	3.88
654.328	3.88
655.087	2.88
655.846	2.88
656.604	3.88
657.363	3.88
658.121	3.88
658.88	4.88
659.638	4.88
660.397	2.88
661.155	3.88
661.913	0.88
662.671	1.88
663.429	3.88
664.187	2.88
664.945	3.88
665.703	4.88
666.46	2.88
667.218	1.88
667.976	2.88
668.733	0.88
669.49	1.88
670.248	2.88
671.005	2.88
671.762	2.88
672.519	0.88
673.276	3.88
674.033	1.88
674.79	1.88
675.547	3.88
676.304	2.88
677.06	1.88
677.817	4.88
678.574	2.88
679.33	2.88
680.086	2.88
680.843	1.88
681.599	4.88
682.355	1.88
683.111	1.88
683.867	3.88
684.623	2.88
685.379	1.88
686.135	1.88
686.89	-0.12
687.646	2.88
688.402	1.88
689.157	2.88
689.912	2.88
690.668	3.88
691.423	3.88
692.178	3.88
692.933	1.88
693.688	2.88
694.443	2.88
695.198	1.88
695.953	3.88
696.708	2.88
697.462	1.88
698.217	2.88
698.972	1.88
699.726	2.88
700.48	3.88
701.235	2.88
701.989	4.88
702.743	1.88
703.497	2.88
704.251	1.88
705.005	1.88
705.759	1.88
706.513	3.88
707.266	0.88
708.02	2.88
708.774	3.88
709.527	0.88
710.28	1.88
711.034	2.88
711.787	1.88
712.54	2.88
713.293	1.88
714.046	-0.12
714.799	0.88
715.552	1.88
716.305	3.88
717.058	-1.12
717.81	0.88
718.563	1.88
719.315	1.88
720.068	3.88
720.82	2.88
721.573	2.88
722.325	1.88
723.077	1.88
723.829	2.88
724.581	2.88
725.333	1.88
726.085	0.88
726.836	2.88
727.588	1.88
728.34	1.88
729.091	1.88
729.843	1.88
730.594	2.88
731.346	2.88
732.097	4.88
732.848	3.88
733.599	2.88
734.35	2.88
735.101	1.88
735.852	-1.12
736.603	4.88
737.354	0.88
738.104	2.88
738.855	2.88
739.605	3.88
740.356	3.88
741.106	1.88
741.856	3.88
742.607	2.88
743.357	1.88
744.107	1.88
744.857	1.88
745.607	2.88
746.357	1.88
747.106	3.88
747.856	2.88
748.606	3.88
749.355	4.88
750.105	0.88
750.854	3.88
751.603	3.88
752.353	3.88
753.102	3.88
753.851	2.88
754.6	2.88
755.349	-0.12
756.098	1.88
756.847	1.88
757.595	5.88
758.344	1.88
759.093	3.88
759.841	2.88
760.589	0.88
761.338	3.88
762.086	2.88
762.834	2.88
763.582	5.88
764.331	1.88
765.079	1.88
765.826	2.88
766.574	5.88
767.322	3.88
768.07	2.88
768.817	5.88
769.565	2.88
770.312	3.88
771.06	3.88
771.807	1.88
772.554	3.88
773.302	3.88
774.049	3.88
774.796	2.88
775.543	5.88
776.29	3.88
777.036	4.88
777.783	4.88
778.53	5.88
779.276	4.88
780.023	5.88
780.769	4.88
781.516	3.88
782.262	4.88
783.008	5.88
783.754	4.88
784.5	5.88
785.246	2.88
785.992	2.88
786.738	1.88
787.484	3.88
788.23	2.88
788.975	3.88
789.721	3.88
790.466	2.88
791.212	5.88
791.957	5.88
792.702	4.88
793.447	5.88
794.193	5.88
794.938	3.88
795.683	5.88
796.427	4.88
797.172	4.88
797.917	2.88
798.662	2.88
799.406	4.88
800.151	4.88
800.895	2.88
801.64	3.88
802.384	1.88
803.128	3.88
803.872	2.88
804.616	5.88
805.36	5.88
806.104	4.88
806.848	1.88
807.592	4.88
808.336	4.88
809.079	3.88
809.823	3.88
810.566	3.88
811.31	3.88
812.053	1.88
812.796	3.88
813.539	5.88
814.283	3.88
815.026	3.88
815.769	3.88
816.511	1.88
817.254	3.88
817.997	-0.12
818.74	3.88
819.482	2.88
820.225	2.88
820.967	3.88
821.71	0.88
822.452	4.88
823.194	3.88
823.936	1.88
824.678	1.88
825.42	2.88
826.162	2.88
826.904	2.88
827.646	2.88
828.388	2.88
829.129	1.88
829.871	5.88
830.612	3.88
831.354	1.88
832.095	2.88
832.836	3.88
833.577	3.88
834.319	3.88
835.06	2.88
835.801	2.88
836.542	3.88
837.282	0.88
838.023	3.88
838.764	4.88
839.504	0.88
840.245	2.88
840.985	3.88
841.726	2.88
842.466	1.88
843.206	3.88
843.946	1.88
844.687	3.88
845.427	1.88
846.166	1.88
846.906	2.88
847.646	0.88
848.386	1.88
849.125	0.88
849.865	3.88
850.605	-1.12
851.344	1.88
852.083	2.88
852.823	3.88
853.562	2.88
854.301	1.88
855.04	2.88
855.779	2.88
856.518	0.88
857.257	0.88
857.995	2.88
858.734	1.88
859.473	1.88
860.211	1.88
860.95	2.88
861.688	1.88
862.426	0.88
863.165	-0.12
863.903	1.88
864.641	1.88
865.379	1.88
866.117	0.88
866.855	0.88
867.593	0.88
868.33	1.88
869.068	0.88
869.806	1.88
870.543	-0.12
871.28	2.88
872.018	3.88
872.755	1.88
873.492	0.88
874.229	1.88
874.967	3.88
875.703	0.88
876.44	-0.12
877.177	2.88
877.914	0.88
878.651	-1.12
879.387	3.88
880.124	0.88
880.86	1.88
881.597	4.88
882.333	1.88
883.069	1.88
883.806	-0.12
884.542	1.88
885.278	0.88
886.014	1.88
886.749	0.88
887.485	0.88
888.221	-0.12
888.957	-1.12
889.692	1.88
890.428	1.88
891.163	1.88
891.899	1.88
892.634	0.88
893.369	0.88
894.104	1.88
894.839	1.88
895.574	-0.12
896.309	0.88
897.044	0.88
897.779	2.88
898.514	1.88
899.248	0.88
899.983	1.88
900.717	-1.12
901.452	-0.12
902.186	-0.12
902.92	-0.12
903.654	1.88
904.389	0.88
905.123	1.88
905.857	-0.12
906.59	1.88
907.324	0.88
908.058	-1.12
908.792	-1.12
909.525	0.88
910.259	0.88
910.992	1.88
911.726	-1.12
912.459	1.88
913.192	0.88
913.925	0.88
914.658	1.88
915.391	0.88
916.124	-0.12
916.857	-0.12
917.59	-0.12
918.323	-0.12
919.055	-0.12
919.788	-1.12
920.521	0.88
921.253	0.88
921.985	-2.12
922.718	0.88
923.45	-1.12
924.182	3.88
924.914	0.88
925.646	1.88
926.378	-0.12
927.11	-0.12
927.841	0.88
928.573	-1.12
929.305	-0.12
930.036	-0.12
930.768	-0.12
931.499	-0.12
932.23	0.88
932.962	1.88
933.693	-2.12
934.424	0.88
935.155	-0.12
935.886	-0.12
936.617	0.88
937.348	-1.12
938.078	-0.12
938.809	0.88
939.54	1.88
940.27	1.88
941.001	-1.12
941.731	0.88
942.461	-1.12
943.191	0.88
943.922	0.88
944.652	3.88
945.382	-0.12
946.112	-0.12
946.841	-1.12
947.571	1.88
948.301	0.88
949.031	1.88
949.76	-0.12
950.49	0.88
951.219	-1.12
951.948	-1.12
952.678	-0.12
953.407	0.88
954.136	-0.12
954.865	0.88
955.594	0.88
956.323	2.88
957.052	1.88
957.78	0.88
958.509	-1.12
959.238	0.88
959.966	0.88
960.695	-0.12
961.423	-1.12
962.151	0.88
962.88	-1.12
963.608	0.88
964.336	-0.12
965.064	0.88
965.792	1.88
966.52	0.88
967.247	-0.12
967.975	-0.12
968.703	1.88
969.43	-0.12
970.158	-1.12
970.885	-0.12
971.613	-1.12
972.34	1.88
973.067	-1.12
973.794	1.88
974.521	-2.12
975.248	1.88
975.975	0.88
976.702	-0.12
977.429	-0.12
978.156	0.88
978.882	1.88
979.609	0.88
980.335	0.88
981.062	0.88
981.788	-1.12
982.514	1.88
983.24	-1.12
983.967	2.88
984.693	-0.12
985.419	0.88
986.144	-1.12
986.87	-0.12
987.596	-0.12
988.322	0.88
989.047	0.88
989.773	2.88
990.498	-1.12
991.224	0.88
991.949	0.88
992.674	1.88
993.399	0.88
994.124	-1.12
994.849	-0.12
995.574	-1.12
996.299	-0.12
997.024	-1.12
997.749	0.88
998.473	-0.12
999.198	2.88
999.922	2.88
1000.647	0.88
1001.371	2.88
1002.095	-0.12
1002.82	-1.12
1003.544	-3.12
1004.268	0.88
1004.992	-1.12
1005.716	-1.12
1006.439	1.88
1007.163	-2.12
1007.887	-1.12
1008.611	0.88
1009.334	-1.12
1010.058	1.88
1010.781	-0.12
1011.504	1.88
1012.228	-1.12
1012.951	0.88
1013.674	0.88
1014.397	-1.12
1015.12	0.88
