节点500_145_QEPB04081__411__11-35-32-538.txt的数据

Date: Wed Nov 12 11:35:32 CST 2025
User: PC
Spectrometer: QEPB0408
触发模式: 0
积分时间 (秒): 1.000000E-2
Scans to average: 1
启用暗噪声校正: true
启用非线性校正: false
滑动平均宽度: 0
X轴模式: Wavelengths
Number of Pixels in Spectrum: 1044
>>>>>Begin Spectral Data<<<<<
220.843	1.88
221.644	1.88
222.444	-1.12
223.244	1.88
224.045	0.88
224.845	-0.12
225.645	1.88
226.445	1.88
227.245	-1.12
228.045	0.88
228.845	2.88
229.645	0.88
230.444	0.88
231.244	1.88
232.043	2.88
232.843	2.88
233.642	-1.12
234.442	2.88
235.241	2.88
236.04	3.88
236.839	1.88
237.638	0.88
238.437	0.88
239.236	0.88
240.035	2.88
240.833	3.88
241.632	0.88
242.43	4.88
243.229	0.88
244.027	0.88
244.826	3.88
245.624	2.88
246.422	2.88
247.22	-0.12
248.018	1.88
248.816	1.88
249.614	1.88
250.412	2.88
251.21	4.88
252.007	2.88
252.805	1.88
253.602	2.88
254.4	1.88
255.197	4.88
255.994	2.88
256.791	2.88
257.589	2.88
258.386	2.88
259.183	4.88
259.979	1.88
260.776	3.88
261.573	3.88
262.37	3.88
263.166	4.88
263.963	4.88
264.759	4.88
265.556	5.88
266.352	5.88
267.148	6.88
267.944	6.88
268.74	4.88
269.536	5.88
270.332	6.88
271.128	8.88
271.924	6.88
272.719	5.88
273.515	6.88
274.311	10.88
275.106	7.88
275.901	12.88
276.697	6.88
277.492	8.88
278.287	11.88
279.082	9.88
279.877	10.88
280.672	8.88
281.467	10.88
282.262	9.88
283.056	8.88
283.851	9.88
284.646	11.88
285.44	8.88
286.234	9.88
287.029	13.88
287.823	10.88
288.617	10.88
289.411	10.88
290.205	10.88
290.999	12.88
291.793	11.88
292.587	10.88
293.381	10.88
294.174	10.88
294.968	10.88
295.761	8.88
296.555	10.88
297.348	9.88
298.141	10.88
298.935	9.88
299.728	7.88
300.521	7.88
301.314	7.88
302.107	8.88
302.899	8.88
303.692	10.88
304.485	8.88
305.277	10.88
306.07	10.88
306.862	8.88
307.655	10.88
308.447	8.88
309.239	8.88
310.031	7.88
310.823	7.88
311.615	6.88
312.407	4.88
313.199	6.88
313.991	5.88
314.783	7.88
315.574	5.88
316.366	5.88
317.157	5.88
317.949	3.88
318.74	4.88
319.531	5.88
320.322	5.88
321.113	4.88
321.904	5.88
322.695	5.88
323.486	7.88
324.277	3.88
325.068	2.88
325.858	5.88
326.649	5.88
327.439	3.88
328.23	5.88
329.02	6.88
329.81	1.88
330.6	3.88
331.391	2.88
332.181	2.88
332.971	2.88
333.76	5.88
334.55	0.88
335.34	2.88
336.13	4.88
336.919	3.88
337.709	6.88
338.498	4.88
339.287	5.88
340.077	3.88
340.866	3.88
341.655	0.88
342.444	6.88
343.233	3.88
344.022	3.88
344.811	3.88
345.6	1.88
346.388	2.88
347.177	3.88
347.965	1.88
348.754	0.88
349.542	2.88
350.33	5.88
351.119	1.88
351.907	3.88
352.695	4.88
353.483	3.88
354.271	2.88
355.059	3.88
355.846	4.88
356.634	2.88
357.422	2.88
358.209	3.88
358.997	3.88
359.784	3.88
360.571	3.88
361.359	5.88
362.146	4.88
362.933	1.88
363.72	6.88
364.507	3.88
365.294	3.88
366.081	1.88
366.867	2.88
367.654	2.88
368.44	5.88
369.227	3.88
370.013	1.88
370.8	2.88
371.586	1.88
372.372	4.88
373.158	0.88
373.944	2.88
374.73	3.88
375.516	2.88
376.302	4.88
377.088	1.88
377.873	2.88
378.659	1.88
379.445	1.88
380.23	2.88
381.015	3.88
381.801	3.88
382.586	2.88
383.371	3.88
384.156	3.88
384.941	3.88
385.726	3.88
386.511	2.88
387.296	3.88
388.08	1.88
388.865	7.88
389.649	4.88
390.434	1.88
391.218	3.88
392.003	2.88
392.787	3.88
393.571	5.88
394.355	4.88
395.139	3.88
395.923	1.88
396.707	4.88
397.491	5.88
398.274	3.88
399.058	2.88
399.842	4.88
400.625	2.88
401.408	2.88
402.192	1.88
402.975	2.88
403.758	2.88
404.541	3.88
405.324	1.88
406.107	4.88
406.89	3.88
407.673	3.88
408.456	4.88
409.238	3.88
410.021	2.88
410.803	6.88
411.586	4.88
412.368	3.88
413.151	4.88
413.933	4.88
414.715	5.88
415.497	4.88
416.279	3.88
417.061	5.88
417.843	4.88
418.624	5.88
419.406	3.88
420.188	7.88
420.969	3.88
421.751	8.88
422.532	4.88
423.313	4.88
424.095	4.88
424.876	5.88
425.657	6.88
426.438	5.88
427.219	7.88
428	7.88
428.78	7.88
429.561	7.88
430.342	8.88
431.122	8.88
431.903	9.88
432.683	6.88
433.464	9.88
434.244	6.88
435.024	9.88
435.804	8.88
436.584	11.88
437.364	11.88
438.144	9.88
438.924	13.88
439.704	12.88
440.483	13.88
441.263	10.88
442.042	13.88
442.822	12.88
443.601	11.88
444.38	14.88
445.16	16.88
445.939	14.88
446.718	18.88
447.497	19.88
448.276	21.88
449.054	24.88
449.833	23.88
450.612	26.88
451.391	31.88
452.169	28.88
452.948	31.88
453.726	34.88
454.504	35.88
455.282	43.88
456.061	47.88
456.839	48.88
457.617	58.88
458.395	63.88
459.172	72.88
459.95	77.88
460.728	87.88
461.506	94.88
462.283	105.88
463.061	111.88
463.838	133.88
464.615	146.88
465.393	168.88
466.17	186.88
466.947	202.88
467.724	229.88
468.501	252.88
469.278	288.88
470.055	313.88
470.831	344.88
471.608	388.88
472.385	426.88
473.161	472.88
473.938	526.88
474.714	584.88
475.49	642.88
476.266	700.88
477.043	787.88
477.819	860.88
478.595	949.88
479.371	1051.88
480.146	1168.88
480.922	1271.88
481.698	1401.88
482.473	1532.88
483.249	1692.88
484.024	1877.88
484.8	2044.88
485.575	2251.88
486.35	2474.88
487.126	2717.88
487.901	2984.88
488.676	3276.88
489.451	3588.88
490.225	3960.88
491	4336.88
491.775	4745.88
492.55	5183.88
493.324	5663.88
494.099	6193.88
494.873	6738.88
495.647	7290.88
496.422	7908.88
497.196	8617.88
497.97	9239.88
498.744	9971.88
499.518	10623.88
500.292	11402.88
501.066	12035.88
501.839	12714.88
502.613	13377.88
503.387	13995.88
504.16	14547.88
504.934	15067.88
505.707	15428.88
506.48	15717.88
507.253	15952.88
508.027	16038.88
508.8	16042.88
509.573	16017.88
510.346	15764.88
511.118	15538.88
511.891	15209.88
512.664	14780.88
513.437	14286.88
514.209	13836.88
514.982	13294.88
515.754	12739.88
516.526	12282.88
517.298	11755.88
518.071	11181.88
518.843	10726.88
519.615	10259.88
520.387	9863.88
521.159	9469.88
521.93	9066.88
522.702	8728.88
523.474	8393.88
524.245	8014.88
525.017	7738.88
525.788	7415.88
526.56	7133.88
527.331	6830.88
528.102	6514.88
528.873	6273.88
529.644	5982.88
530.415	5700.88
531.186	5421.88
531.957	5159.88
532.728	4928.88
533.498	4655.88
534.269	4420.88
535.039	4146.88
535.81	3964.88
536.58	3729.88
537.351	3520.88
538.121	3336.88
538.891	3165.88
539.661	2964.88
540.431	2832.88
541.201	2662.88
541.971	2529.88
542.741	2388.88
543.51	2286.88
544.28	2138.88
545.05	2042.88
545.819	1941.88
546.588	1843.88
547.358	1750.88
548.127	1672.88
548.896	1597.88
549.665	1514.88
550.434	1430.88
551.203	1367.88
551.972	1284.88
552.741	1226.88
553.51	1159.88
554.278	1094.88
555.047	1038.88
555.815	980.88
556.584	929.88
557.352	869.88
558.121	818.88
558.889	779.88
559.657	726.88
560.425	686.88
561.193	654.88
561.961	615.88
562.729	580.88
563.496	539.88
564.264	519.88
565.032	482.88
565.799	463.88
566.567	434.88
567.334	414.88
568.101	384.88
568.869	364.88
569.636	346.88
570.403	320.88
571.17	307.88
571.937	285.88
572.704	270.88
573.471	256.88
574.237	238.88
575.004	232.88
575.771	218.88
576.537	198.88
577.303	186.88
578.07	179.88
578.836	166.88
579.602	157.88
580.368	147.88
581.134	144.88
581.9	137.88
582.666	129.88
583.432	119.88
584.198	112.88
584.964	106.88
585.729	100.88
586.495	94.88
587.26	92.88
588.025	85.88
588.791	86.88
589.556	75.88
590.321	71.88
591.086	72.88
591.851	61.88
592.616	58.88
593.381	59.88
594.146	57.88
594.911	53.88
595.675	48.88
596.44	52.88
597.204	45.88
597.969	47.88
598.733	40.88
599.497	40.88
600.261	38.88
601.025	35.88
601.79	35.88
602.553	33.88
603.317	31.88
604.081	31.88
604.845	27.88
605.609	26.88
606.372	28.88
607.136	23.88
607.899	24.88
608.662	23.88
609.426	24.88
610.189	20.88
610.952	21.88
611.715	18.88
612.478	18.88
613.241	19.88
614.004	16.88
614.767	14.88
615.529	16.88
616.292	15.88
617.055	12.88
617.817	14.88
618.579	12.88
619.342	14.88
620.104	16.88
620.866	8.88
621.628	14.88
622.39	9.88
623.152	11.88
623.914	9.88
624.676	12.88
625.438	8.88
626.199	9.88
626.961	7.88
627.722	9.88
628.484	7.88
629.245	9.88
630.006	11.88
630.768	9.88
631.529	7.88
632.29	8.88
633.051	8.88
633.812	5.88
634.573	7.88
635.333	6.88
636.094	5.88
636.855	7.88
637.615	4.88
638.376	2.88
639.136	6.88
639.896	4.88
640.657	3.88
641.417	6.88
642.177	6.88
642.937	4.88
643.697	7.88
644.457	7.88
645.216	4.88
645.976	4.88
646.736	4.88
647.495	4.88
648.255	4.88
649.014	4.88
649.774	4.88
650.533	3.88
651.292	4.88
652.051	2.88
652.81	2.88
653.569	4.88
654.328	2.88
655.087	3.88
655.846	2.88
656.604	2.88
657.363	5.88
658.121	3.88
658.88	3.88
659.638	3.88
660.397	2.88
661.155	3.88
661.913	3.88
662.671	3.88
663.429	5.88
664.187	3.88
664.945	4.88
665.703	3.88
666.46	4.88
667.218	3.88
667.976	3.88
668.733	0.88
669.49	4.88
670.248	2.88
671.005	2.88
671.762	3.88
672.519	1.88
673.276	2.88
674.033	2.88
674.79	1.88
675.547	1.88
676.304	2.88
677.06	2.88
677.817	4.88
678.574	2.88
679.33	2.88
680.086	3.88
680.843	1.88
681.599	2.88
682.355	3.88
683.111	3.88
683.867	1.88
684.623	2.88
685.379	3.88
686.135	-0.12
686.89	3.88
687.646	2.88
688.402	1.88
689.157	1.88
689.912	1.88
690.668	2.88
691.423	0.88
692.178	3.88
692.933	0.88
693.688	2.88
694.443	1.88
695.198	1.88
695.953	3.88
696.708	1.88
697.462	1.88
698.217	2.88
698.972	4.88
699.726	2.88
700.48	-0.12
701.235	3.88
701.989	2.88
702.743	1.88
703.497	0.88
704.251	2.88
705.005	3.88
705.759	0.88
706.513	2.88
707.266	1.88
708.02	0.88
708.774	0.88
709.527	1.88
710.28	3.88
711.034	0.88
711.787	0.88
712.54	2.88
713.293	1.88
714.046	2.88
714.799	1.88
715.552	2.88
716.305	0.88
717.058	3.88
717.81	2.88
718.563	1.88
719.315	3.88
720.068	2.88
720.82	1.88
721.573	2.88
722.325	3.88
723.077	4.88
723.829	1.88
724.581	1.88
725.333	1.88
726.085	4.88
726.836	1.88
727.588	2.88
728.34	1.88
729.091	4.88
729.843	1.88
730.594	1.88
731.346	3.88
732.097	2.88
732.848	1.88
733.599	3.88
734.35	0.88
735.101	1.88
735.852	1.88
736.603	3.88
737.354	0.88
738.104	2.88
738.855	1.88
739.605	3.88
740.356	4.88
741.106	0.88
741.856	3.88
742.607	2.88
743.357	2.88
744.107	2.88
744.857	1.88
745.607	2.88
746.357	5.88
747.106	3.88
747.856	2.88
748.606	3.88
749.355	1.88
750.105	1.88
750.854	2.88
751.603	2.88
752.353	1.88
753.102	1.88
753.851	2.88
754.6	2.88
755.349	1.88
756.098	2.88
756.847	1.88
757.595	3.88
758.344	1.88
759.093	3.88
759.841	1.88
760.589	2.88
761.338	2.88
762.086	1.88
762.834	3.88
763.582	2.88
764.331	5.88
765.079	4.88
765.826	5.88
766.574	2.88
767.322	2.88
768.07	5.88
768.817	4.88
769.565	4.88
770.312	2.88
771.06	4.88
771.807	5.88
772.554	1.88
773.302	3.88
774.049	3.88
774.796	3.88
775.543	3.88
776.29	4.88
777.036	3.88
777.783	4.88
778.53	4.88
779.276	3.88
780.023	5.88
780.769	5.88
781.516	3.88
782.262	2.88
783.008	5.88
783.754	5.88
784.5	6.88
785.246	8.88
785.992	4.88
786.738	5.88
787.484	6.88
788.23	3.88
788.975	6.88
789.721	2.88
790.466	7.88
791.212	7.88
791.957	3.88
792.702	4.88
793.447	3.88
794.193	3.88
794.938	5.88
795.683	3.88
796.427	3.88
797.172	3.88
797.917	4.88
798.662	2.88
799.406	4.88
800.151	3.88
800.895	5.88
801.64	3.88
802.384	3.88
803.128	2.88
803.872	2.88
804.616	4.88
805.36	5.88
806.104	4.88
806.848	5.88
807.592	4.88
808.336	5.88
809.079	1.88
809.823	5.88
810.566	3.88
811.31	2.88
812.053	2.88
812.796	4.88
813.539	3.88
814.283	2.88
815.026	4.88
815.769	5.88
816.511	3.88
817.254	5.88
817.997	1.88
818.74	3.88
819.482	2.88
820.225	3.88
820.967	4.88
821.71	2.88
822.452	1.88
823.194	2.88
823.936	0.88
824.678	3.88
825.42	5.88
826.162	2.88
826.904	4.88
827.646	3.88
828.388	2.88
829.129	1.88
829.871	4.88
830.612	4.88
831.354	2.88
832.095	2.88
832.836	2.88
833.577	2.88
834.319	2.88
835.06	1.88
835.801	5.88
836.542	0.88
837.282	1.88
838.023	2.88
838.764	2.88
839.504	2.88
840.245	3.88
840.985	2.88
841.726	0.88
842.466	3.88
843.206	1.88
843.946	1.88
844.687	1.88
845.427	-0.12
846.166	2.88
846.906	2.88
847.646	2.88
848.386	1.88
849.125	1.88
849.865	0.88
850.605	0.88
851.344	-0.12
852.083	3.88
852.823	1.88
853.562	2.88
854.301	1.88
855.04	1.88
855.779	0.88
856.518	3.88
857.257	0.88
857.995	5.88
858.734	2.88
859.473	1.88
860.211	1.88
860.95	0.88
861.688	2.88
862.426	1.88
863.165	2.88
863.903	2.88
864.641	3.88
865.379	-0.12
866.117	-0.12
866.855	3.88
867.593	2.88
868.33	0.88
869.068	-1.12
869.806	2.88
870.543	2.88
871.28	-0.12
872.018	2.88
872.755	1.88
873.492	3.88
874.229	1.88
874.967	-1.12
875.703	3.88
876.44	2.88
877.177	2.88
877.914	1.88
878.651	-1.12
879.387	-1.12
880.124	0.88
880.86	1.88
881.597	1.88
882.333	2.88
883.069	1.88
883.806	0.88
884.542	1.88
885.278	0.88
886.014	3.88
886.749	-0.12
887.485	-1.12
888.221	-0.12
888.957	1.88
889.692	0.88
890.428	-0.12
891.163	-1.12
891.899	2.88
892.634	-0.12
893.369	1.88
894.104	-0.12
894.839	-0.12
895.574	-0.12
896.309	0.88
897.044	-2.12
897.779	-0.12
898.514	2.88
899.248	-2.12
899.983	2.88
900.717	1.88
901.452	-1.12
902.186	1.88
902.92	-0.12
903.654	-0.12
904.389	0.88
905.123	0.88
905.857	-1.12
906.59	0.88
907.324	-0.12
908.058	-0.12
908.792	-0.12
909.525	1.88
910.259	0.88
910.992	1.88
911.726	-0.12
912.459	1.88
913.192	1.88
913.925	0.88
914.658	-1.12
915.391	2.88
916.124	1.88
916.857	-1.12
917.59	3.88
918.323	-1.12
919.055	0.88
919.788	0.88
920.521	2.88
921.253	-0.12
921.985	1.88
922.718	-0.12
923.45	1.88
924.182	0.88
924.914	1.88
925.646	1.88
926.378	-1.12
927.11	0.88
927.841	-1.12
928.573	0.88
929.305	1.88
930.036	-0.12
930.768	1.88
931.499	1.88
932.23	-0.12
932.962	1.88
933.693	1.88
934.424	2.88
935.155	-1.12
935.886	1.88
936.617	0.88
937.348	-2.12
938.078	0.88
938.809	-1.12
939.54	1.88
940.27	-1.12
941.001	0.88
941.731	-0.12
942.461	-0.12
943.191	2.88
943.922	-1.12
944.652	1.88
945.382	-0.12
946.112	-0.12
946.841	-0.12
947.571	-2.12
948.301	-0.12
949.031	-3.12
949.76	0.88
950.49	0.88
951.219	2.88
951.948	1.88
952.678	0.88
953.407	-0.12
954.136	-0.12
954.865	1.88
955.594	0.88
956.323	0.88
957.052	2.88
957.78	-3.12
958.509	-0.12
959.238	0.88
959.966	2.88
960.695	1.88
961.423	1.88
962.151	1.88
962.88	-0.12
963.608	0.88
964.336	-1.12
965.064	0.88
965.792	-0.12
966.52	0.88
967.247	-1.12
967.975	-1.12
968.703	-0.12
969.43	2.88
970.158	-1.12
970.885	2.88
971.613	0.88
972.34	-0.12
973.067	-1.12
973.794	0.88
974.521	-0.12
975.248	1.88
975.975	-0.12
976.702	0.88
977.429	0.88
978.156	0.88
978.882	0.88
979.609	-1.12
980.335	-1.12
981.062	-0.12
981.788	-1.12
982.514	1.88
983.24	1.88
983.967	-1.12
984.693	0.88
985.419	-1.12
986.144	0.88
986.87	-0.12
987.596	-0.12
988.322	-0.12
989.047	2.88
989.773	-2.12
990.498	-0.12
991.224	1.88
991.949	0.88
992.674	-1.12
993.399	-0.12
994.124	1.88
994.849	-0.12
995.574	0.88
996.299	2.88
997.024	2.88
997.749	-0.12
998.473	-0.12
999.198	1.88
999.922	-1.12
1000.647	1.88
1001.371	1.88
1002.095	-2.12
1002.82	-1.12
1003.544	-1.12
1004.268	0.88
1004.992	-0.12
1005.716	-0.12
1006.439	-1.12
1007.163	-0.12
1007.887	-2.12
1008.611	0.88
1009.334	-1.12
1010.058	2.88
1010.781	1.88
1011.504	2.88
1012.228	0.88
1012.951	-1.12
1013.674	1.88
1014.397	1.88
1015.12	-0.12
