节点500_145_QEPB04081__418__11-35-38-535.txt的数据

Date: Wed Nov 12 11:35:38 CST 2025
User: PC
Spectrometer: QEPB0408
触发模式: 0
积分时间 (秒): 1.000000E-2
Scans to average: 1
启用暗噪声校正: true
启用非线性校正: false
滑动平均宽度: 0
X轴模式: Wavelengths
Number of Pixels in Spectrum: 1044
>>>>>Begin Spectral Data<<<<<
220.843	-0.38
221.644	-1.38
222.444	0.62
223.244	-3.38
224.045	0.62
224.845	2.62
225.645	1.62
226.445	2.62
227.245	1.62
228.045	1.62
228.845	0.62
229.645	2.62
230.444	-1.38
231.244	-1.38
232.043	1.62
232.843	-2.38
233.642	3.62
234.442	-0.38
235.241	4.62
236.04	3.62
236.839	1.62
237.638	1.62
238.437	1.62
239.236	1.62
240.035	0.62
240.833	1.62
241.632	2.62
242.43	1.62
243.229	1.62
244.027	-0.38
244.826	2.62
245.624	1.62
246.422	3.62
247.22	2.62
248.018	3.62
248.816	1.62
249.614	0.62
250.412	5.62
251.21	1.62
252.007	2.62
252.805	3.62
253.602	3.62
254.4	2.62
255.197	1.62
255.994	3.62
256.791	5.62
257.589	3.62
258.386	1.62
259.183	4.62
259.979	3.62
260.776	5.62
261.573	5.62
262.37	6.62
263.166	3.62
263.963	3.62
264.759	6.62
265.556	5.62
266.352	2.62
267.148	5.62
267.944	6.62
268.74	3.62
269.536	6.62
270.332	5.62
271.128	6.62
271.924	6.62
272.719	7.62
273.515	8.62
274.311	5.62
275.106	8.62
275.901	7.62
276.697	8.62
277.492	9.62
278.287	9.62
279.082	9.62
279.877	9.62
280.672	9.62
281.467	9.62
282.262	12.62
283.056	9.62
283.851	9.62
284.646	8.62
285.44	12.62
286.234	9.62
287.029	11.62
287.823	9.62
288.617	11.62
289.411	9.62
290.205	11.62
290.999	10.62
291.793	8.62
292.587	9.62
293.381	12.62
294.174	8.62
294.968	9.62
295.761	7.62
296.555	11.62
297.348	7.62
298.141	8.62
298.935	10.62
299.728	7.62
300.521	10.62
301.314	11.62
302.107	6.62
302.899	9.62
303.692	3.62
304.485	9.62
305.277	6.62
306.07	7.62
306.862	8.62
307.655	8.62
308.447	7.62
309.239	4.62
310.031	8.62
310.823	5.62
311.615	4.62
312.407	7.62
313.199	2.62
313.991	8.62
314.783	5.62
315.574	5.62
316.366	5.62
317.157	7.62
317.949	4.62
318.74	6.62
319.531	4.62
320.322	5.62
321.113	6.62
321.904	3.62
322.695	3.62
323.486	5.62
324.277	4.62
325.068	4.62
325.858	3.62
326.649	4.62
327.439	4.62
328.23	3.62
329.02	4.62
329.81	4.62
330.6	3.62
331.391	3.62
332.181	4.62
332.971	3.62
333.76	2.62
334.55	3.62
335.34	1.62
336.13	3.62
336.919	3.62
337.709	3.62
338.498	3.62
339.287	3.62
340.077	3.62
340.866	2.62
341.655	5.62
342.444	1.62
343.233	3.62
344.022	4.62
344.811	3.62
345.6	3.62
346.388	3.62
347.177	5.62
347.965	3.62
348.754	4.62
349.542	0.62
350.33	0.62
351.119	4.62
351.907	2.62
352.695	3.62
353.483	3.62
354.271	2.62
355.059	2.62
355.846	3.62
356.634	2.62
357.422	3.62
358.209	2.62
358.997	3.62
359.784	2.62
360.571	1.62
361.359	2.62
362.146	5.62
362.933	2.62
363.72	5.62
364.507	2.62
365.294	4.62
366.081	2.62
366.867	0.62
367.654	1.62
368.44	3.62
369.227	3.62
370.013	2.62
370.8	-0.38
371.586	3.62
372.372	1.62
373.158	2.62
373.944	1.62
374.73	2.62
375.516	1.62
376.302	0.62
377.088	1.62
377.873	1.62
378.659	2.62
379.445	1.62
380.23	2.62
381.015	3.62
381.801	1.62
382.586	3.62
383.371	3.62
384.156	3.62
384.941	3.62
385.726	4.62
386.511	2.62
387.296	3.62
388.08	1.62
388.865	3.62
389.649	5.62
390.434	3.62
391.218	3.62
392.003	3.62
392.787	2.62
393.571	4.62
394.355	0.62
395.139	6.62
395.923	4.62
396.707	1.62
397.491	3.62
398.274	4.62
399.058	1.62
399.842	3.62
400.625	4.62
401.408	2.62
402.192	3.62
402.975	5.62
403.758	3.62
404.541	5.62
405.324	2.62
406.107	3.62
406.89	5.62
407.673	4.62
408.456	3.62
409.238	3.62
410.021	2.62
410.803	4.62
411.586	5.62
412.368	5.62
413.151	5.62
413.933	3.62
414.715	2.62
415.497	4.62
416.279	5.62
417.061	6.62
417.843	3.62
418.624	6.62
419.406	2.62
420.188	3.62
420.969	5.62
421.751	5.62
422.532	5.62
423.313	5.62
424.095	1.62
424.876	6.62
425.657	6.62
426.438	5.62
427.219	5.62
428	6.62
428.78	7.62
429.561	7.62
430.342	6.62
431.122	7.62
431.903	7.62
432.683	8.62
433.464	9.62
434.244	9.62
435.024	8.62
435.804	8.62
436.584	10.62
437.364	10.62
438.144	10.62
438.924	13.62
439.704	12.62
440.483	10.62
441.263	13.62
442.042	13.62
442.822	13.62
443.601	13.62
444.38	12.62
445.16	17.62
445.939	17.62
446.718	17.62
447.497	18.62
448.276	21.62
449.054	23.62
449.833	23.62
450.612	24.62
451.391	27.62
452.169	29.62
452.948	31.62
453.726	37.62
454.504	40.62
455.282	44.62
456.061	46.62
456.839	51.62
457.617	60.62
458.395	64.62
459.172	69.62
459.95	77.62
460.728	84.62
461.506	96.62
462.283	105.62
463.061	119.62
463.838	128.62
464.615	152.62
465.393	163.62
466.17	184.62
466.947	199.62
467.724	227.62
468.501	250.62
469.278	277.62
470.055	309.62
470.831	353.62
471.608	384.62
472.385	423.62
473.161	479.62
473.938	521.62
474.714	579.62
475.49	636.62
476.266	713.62
477.043	788.62
477.819	863.62
478.595	959.62
479.371	1061.62
480.146	1158.62
480.922	1282.62
481.698	1403.62
482.473	1534.62
483.249	1710.62
484.024	1871.62
484.8	2051.62
485.575	2255.62
486.35	2496.62
487.126	2731.62
487.901	2998.62
488.676	3270.62
489.451	3592.62
490.225	3930.62
491	4329.62
491.775	4737.62
492.55	5189.62
493.324	5647.62
494.099	6167.62
494.873	6691.62
495.647	7319.62
496.422	7942.62
497.196	8562.62
497.97	9206.62
498.744	9958.62
499.518	10619.62
500.292	11358.62
501.066	12051.62
501.839	12701.62
502.613	13390.62
503.387	13960.62
504.16	14529.62
504.934	14998.62
505.707	15401.62
506.48	15688.62
507.253	15895.62
508.027	16066.62
508.8	16004.62
509.573	15940.62
510.346	15748.62
511.118	15559.62
511.891	15134.62
512.664	14724.62
513.437	14302.62
514.209	13837.62
514.982	13301.62
515.754	12756.62
516.526	12282.62
517.298	11733.62
518.071	11170.62
518.843	10764.62
519.615	10289.62
520.387	9845.62
521.159	9470.62
521.93	9067.62
522.702	8722.62
523.474	8405.62
524.245	8038.62
525.017	7752.62
525.788	7432.62
526.56	7138.62
527.331	6839.62
528.102	6505.62
528.873	6271.62
529.644	5983.62
530.415	5735.62
531.186	5464.62
531.957	5185.62
532.728	4909.62
533.498	4680.62
534.269	4431.62
535.039	4169.62
535.81	3945.62
536.58	3751.62
537.351	3531.62
538.121	3355.62
538.891	3158.62
539.661	2977.62
540.431	2811.62
541.201	2667.62
541.971	2509.62
542.741	2395.62
543.51	2277.62
544.28	2168.62
545.05	2050.62
545.819	1951.62
546.588	1855.62
547.358	1747.62
548.127	1676.62
548.896	1585.62
549.665	1492.62
550.434	1432.62
551.203	1359.62
551.972	1283.62
552.741	1213.62
553.51	1152.62
554.278	1094.62
555.047	1027.62
555.815	970.62
556.584	924.62
557.352	878.62
558.121	819.62
558.889	774.62
559.657	742.62
560.425	687.62
561.193	656.62
561.961	611.62
562.729	579.62
563.496	543.62
564.264	515.62
565.032	492.62
565.799	460.62
566.567	427.62
567.334	408.62
568.101	380.62
568.869	366.62
569.636	346.62
570.403	329.62
571.17	306.62
571.937	288.62
572.704	277.62
573.471	257.62
574.237	244.62
575.004	225.62
575.771	209.62
576.537	199.62
577.303	190.62
578.07	179.62
578.836	164.62
579.602	161.62
580.368	147.62
581.134	146.62
581.9	134.62
582.666	131.62
583.432	119.62
584.198	111.62
584.964	109.62
585.729	102.62
586.495	94.62
587.26	90.62
588.025	84.62
588.791	76.62
589.556	74.62
590.321	72.62
591.086	69.62
591.851	65.62
592.616	62.62
593.381	60.62
594.146	58.62
594.911	53.62
595.675	50.62
596.44	46.62
597.204	45.62
597.969	46.62
598.733	40.62
599.497	37.62
600.261	36.62
601.025	38.62
601.79	35.62
602.553	35.62
603.317	30.62
604.081	28.62
604.845	28.62
605.609	28.62
606.372	25.62
607.136	25.62
607.899	22.62
608.662	22.62
609.426	27.62
610.189	21.62
610.952	22.62
611.715	19.62
612.478	17.62
613.241	16.62
614.004	16.62
614.767	18.62
615.529	15.62
616.292	15.62
617.055	16.62
617.817	15.62
618.579	15.62
619.342	14.62
620.104	11.62
620.866	14.62
621.628	11.62
622.39	12.62
623.152	13.62
623.914	9.62
624.676	10.62
625.438	11.62
626.199	8.62
626.961	11.62
627.722	11.62
628.484	10.62
629.245	7.62
630.006	8.62
630.768	7.62
631.529	7.62
632.29	7.62
633.051	9.62
633.812	8.62
634.573	6.62
635.333	7.62
636.094	7.62
636.855	6.62
637.615	6.62
638.376	7.62
639.136	4.62
639.896	5.62
640.657	8.62
641.417	5.62
642.177	6.62
642.937	3.62
643.697	4.62
644.457	4.62
645.216	6.62
645.976	3.62
646.736	5.62
647.495	4.62
648.255	2.62
649.014	1.62
649.774	3.62
650.533	3.62
651.292	5.62
652.051	3.62
652.81	5.62
653.569	2.62
654.328	5.62
655.087	3.62
655.846	2.62
656.604	3.62
657.363	4.62
658.121	0.62
658.88	4.62
659.638	4.62
660.397	2.62
661.155	2.62
661.913	2.62
662.671	2.62
663.429	4.62
664.187	1.62
664.945	4.62
665.703	2.62
666.46	2.62
667.218	2.62
667.976	3.62
668.733	2.62
669.49	1.62
670.248	3.62
671.005	1.62
671.762	4.62
672.519	0.62
673.276	1.62
674.033	2.62
674.79	3.62
675.547	2.62
676.304	1.62
677.06	2.62
677.817	0.62
678.574	3.62
679.33	2.62
680.086	2.62
680.843	1.62
681.599	4.62
682.355	2.62
683.111	2.62
683.867	5.62
684.623	4.62
685.379	0.62
686.135	3.62
686.89	1.62
687.646	3.62
688.402	1.62
689.157	2.62
689.912	2.62
690.668	-0.38
691.423	2.62
692.178	1.62
692.933	2.62
693.688	1.62
694.443	-0.38
695.198	2.62
695.953	2.62
696.708	2.62
697.462	0.62
698.217	3.62
698.972	3.62
699.726	5.62
700.48	1.62
701.235	2.62
701.989	1.62
702.743	-1.38
703.497	4.62
704.251	1.62
705.005	2.62
705.759	4.62
706.513	2.62
707.266	1.62
708.02	1.62
708.774	1.62
709.527	0.62
710.28	2.62
711.034	0.62
711.787	2.62
712.54	5.62
713.293	2.62
714.046	2.62
714.799	3.62
715.552	1.62
716.305	3.62
717.058	4.62
717.81	3.62
718.563	0.62
719.315	0.62
720.068	2.62
720.82	0.62
721.573	2.62
722.325	1.62
723.077	2.62
723.829	-1.38
724.581	2.62
725.333	3.62
726.085	0.62
726.836	3.62
727.588	0.62
728.34	3.62
729.091	2.62
729.843	2.62
730.594	2.62
731.346	1.62
732.097	2.62
732.848	0.62
733.599	3.62
734.35	2.62
735.101	1.62
735.852	3.62
736.603	0.62
737.354	4.62
738.104	2.62
738.855	4.62
739.605	1.62
740.356	3.62
741.106	3.62
741.856	-0.38
742.607	2.62
743.357	1.62
744.107	4.62
744.857	2.62
745.607	4.62
746.357	3.62
747.106	3.62
747.856	1.62
748.606	1.62
749.355	0.62
750.105	3.62
750.854	0.62
751.603	1.62
752.353	1.62
753.102	3.62
753.851	0.62
754.6	1.62
755.349	2.62
756.098	4.62
756.847	3.62
757.595	2.62
758.344	3.62
759.093	3.62
759.841	4.62
760.589	2.62
761.338	2.62
762.086	2.62
762.834	2.62
763.582	2.62
764.331	2.62
765.079	1.62
765.826	2.62
766.574	4.62
767.322	4.62
768.07	4.62
768.817	3.62
769.565	4.62
770.312	6.62
771.06	4.62
771.807	1.62
772.554	3.62
773.302	3.62
774.049	5.62
774.796	5.62
775.543	5.62
776.29	3.62
777.036	4.62
777.783	3.62
778.53	4.62
779.276	7.62
780.023	5.62
780.769	5.62
781.516	4.62
782.262	3.62
783.008	6.62
783.754	2.62
784.5	7.62
785.246	5.62
785.992	5.62
786.738	5.62
787.484	5.62
788.23	5.62
788.975	6.62
789.721	5.62
790.466	3.62
791.212	7.62
791.957	7.62
792.702	6.62
793.447	3.62
794.193	5.62
794.938	3.62
795.683	5.62
796.427	5.62
797.172	5.62
797.917	3.62
798.662	7.62
799.406	5.62
800.151	2.62
800.895	5.62
801.64	3.62
802.384	3.62
803.128	4.62
803.872	3.62
804.616	5.62
805.36	2.62
806.104	0.62
806.848	3.62
807.592	4.62
808.336	3.62
809.079	2.62
809.823	3.62
810.566	3.62
811.31	3.62
812.053	4.62
812.796	3.62
813.539	1.62
814.283	5.62
815.026	0.62
815.769	1.62
816.511	4.62
817.254	5.62
817.997	4.62
818.74	2.62
819.482	5.62
820.225	1.62
820.967	3.62
821.71	1.62
822.452	2.62
823.194	2.62
823.936	1.62
824.678	3.62
825.42	2.62
826.162	4.62
826.904	1.62
827.646	1.62
828.388	3.62
829.129	1.62
829.871	1.62
830.612	4.62
831.354	3.62
832.095	2.62
832.836	3.62
833.577	2.62
834.319	2.62
835.06	2.62
835.801	1.62
836.542	2.62
837.282	4.62
838.023	2.62
838.764	3.62
839.504	1.62
840.245	2.62
840.985	2.62
841.726	3.62
842.466	1.62
843.206	2.62
843.946	2.62
844.687	0.62
845.427	1.62
846.166	1.62
846.906	3.62
847.646	4.62
848.386	2.62
849.125	2.62
849.865	3.62
850.605	3.62
851.344	-0.38
852.083	1.62
852.823	1.62
853.562	1.62
854.301	2.62
855.04	0.62
855.779	3.62
856.518	0.62
857.257	1.62
857.995	-0.38
858.734	1.62
859.473	1.62
860.211	0.62
860.95	1.62
861.688	-0.38
862.426	-0.38
863.165	3.62
863.903	1.62
864.641	1.62
865.379	2.62
866.117	0.62
866.855	1.62
867.593	1.62
868.33	0.62
869.068	1.62
869.806	0.62
870.543	1.62
871.28	1.62
872.018	0.62
872.755	-0.38
873.492	1.62
874.229	-1.38
874.967	3.62
875.703	0.62
876.44	-0.38
877.177	3.62
877.914	-0.38
878.651	3.62
879.387	0.62
880.124	0.62
880.86	0.62
881.597	3.62
882.333	-0.38
883.069	0.62
883.806	2.62
884.542	0.62
885.278	0.62
886.014	0.62
886.749	1.62
887.485	-0.38
888.221	-0.38
888.957	0.62
889.692	0.62
890.428	1.62
891.163	-1.38
891.899	-0.38
892.634	1.62
893.369	-1.38
894.104	1.62
894.839	0.62
895.574	0.62
896.309	1.62
897.044	0.62
897.779	2.62
898.514	-1.38
899.248	1.62
899.983	-0.38
900.717	4.62
901.452	1.62
902.186	1.62
902.92	1.62
903.654	-1.38
904.389	-2.38
905.123	0.62
905.857	-0.38
906.59	-1.38
907.324	2.62
908.058	0.62
908.792	-0.38
909.525	-0.38
910.259	-2.38
910.992	1.62
911.726	-1.38
912.459	0.62
913.192	-1.38
913.925	0.62
914.658	0.62
915.391	-0.38
916.124	1.62
916.857	1.62
917.59	-0.38
918.323	1.62
919.055	-1.38
919.788	-0.38
920.521	-0.38
921.253	1.62
921.985	2.62
922.718	-0.38
923.45	1.62
924.182	0.62
924.914	1.62
925.646	-1.38
926.378	1.62
927.11	-0.38
927.841	-0.38
928.573	1.62
929.305	-1.38
930.036	0.62
930.768	-0.38
931.499	-1.38
932.23	2.62
932.962	1.62
933.693	-0.38
934.424	-1.38
935.155	0.62
935.886	0.62
936.617	1.62
937.348	-1.38
938.078	-0.38
938.809	0.62
939.54	-1.38
940.27	0.62
941.001	1.62
941.731	0.62
942.461	0.62
943.191	-0.38
943.922	-0.38
944.652	-0.38
945.382	1.62
946.112	-0.38
946.841	-1.38
947.571	2.62
948.301	1.62
949.031	1.62
949.76	-0.38
950.49	-0.38
951.219	2.62
951.948	-0.38
952.678	-0.38
953.407	2.62
954.136	2.62
954.865	-0.38
955.594	-1.38
956.323	-0.38
957.052	0.62
957.78	-0.38
958.509	-1.38
959.238	1.62
959.966	-1.38
960.695	1.62
961.423	1.62
962.151	-1.38
962.88	0.62
963.608	1.62
964.336	-0.38
965.064	-0.38
965.792	3.62
966.52	1.62
967.247	0.62
967.975	2.62
968.703	-0.38
969.43	0.62
970.158	-2.38
970.885	-0.38
971.613	1.62
972.34	0.62
973.067	-1.38
973.794	-0.38
974.521	0.62
975.248	-0.38
975.975	0.62
976.702	1.62
977.429	0.62
978.156	0.62
978.882	0.62
979.609	-1.38
980.335	1.62
981.062	1.62
981.788	0.62
982.514	-0.38
983.24	0.62
983.967	-0.38
984.693	-0.38
985.419	0.62
986.144	-0.38
986.87	-0.38
987.596	1.62
988.322	-0.38
989.047	0.62
989.773	0.62
990.498	-0.38
991.224	-1.38
991.949	-0.38
992.674	1.62
993.399	1.62
994.124	-2.38
994.849	0.62
995.574	0.62
996.299	2.62
997.024	0.62
997.749	1.62
998.473	0.62
999.198	-0.38
999.922	1.62
1000.647	-0.38
1001.371	5.62
1002.095	-2.38
1002.82	-1.38
1003.544	-1.38
1004.268	-1.38
1004.992	-1.38
1005.716	0.62
1006.439	-1.38
1007.163	-1.38
1007.887	-0.38
1008.611	0.62
1009.334	-1.38
1010.058	-2.38
1010.781	0.62
1011.504	-0.38
1012.228	1.62
1012.951	1.62
1013.674	-0.38
1014.397	-0.38
1015.12	-1.38
