节点500_145_QEPB04081__355__11-34-37-552.txt的数据

Date: Wed Nov 12 11:34:37 CST 2025
User: PC
Spectrometer: QEPB0408
触发模式: 0
积分时间 (秒): 1.000000E-2
Scans to average: 1
启用暗噪声校正: true
启用非线性校正: false
滑动平均宽度: 0
X轴模式: Wavelengths
Number of Pixels in Spectrum: 1044
>>>>>Begin Spectral Data<<<<<
220.843	-1.5
221.644	0.5
222.444	-0.5
223.244	-1.5
224.045	1.5
224.845	0.5
225.645	0.5
226.445	-1.5
227.245	1.5
228.045	0.5
228.845	0.5
229.645	1.5
230.444	1.5
231.244	0.5
232.043	1.5
232.843	-0.5
233.642	-2.5
234.442	2.5
235.241	1.5
236.04	2.5
236.839	2.5
237.638	-0.5
238.437	1.5
239.236	3.5
240.035	-0.5
240.833	-1.5
241.632	1.5
242.43	1.5
243.229	2.5
244.027	1.5
244.826	1.5
245.624	1.5
246.422	1.5
247.22	3.5
248.018	1.5
248.816	1.5
249.614	2.5
250.412	3.5
251.21	2.5
252.007	1.5
252.805	3.5
253.602	3.5
254.4	4.5
255.197	3.5
255.994	2.5
256.791	3.5
257.589	5.5
258.386	4.5
259.183	4.5
259.979	4.5
260.776	6.5
261.573	5.5
262.37	5.5
263.166	5.5
263.963	5.5
264.759	7.5
265.556	5.5
266.352	7.5
267.148	5.5
267.944	4.5
268.74	6.5
269.536	5.5
270.332	4.5
271.128	8.5
271.924	7.5
272.719	9.5
273.515	7.5
274.311	9.5
275.106	8.5
275.901	8.5
276.697	8.5
277.492	11.5
278.287	7.5
279.082	9.5
279.877	9.5
280.672	8.5
281.467	11.5
282.262	9.5
283.056	11.5
283.851	10.5
284.646	13.5
285.44	9.5
286.234	8.5
287.029	11.5
287.823	10.5
288.617	7.5
289.411	8.5
290.205	9.5
290.999	10.5
291.793	10.5
292.587	11.5
293.381	9.5
294.174	9.5
294.968	8.5
295.761	9.5
296.555	10.5
297.348	9.5
298.141	8.5
298.935	13.5
299.728	7.5
300.521	8.5
301.314	7.5
302.107	8.5
302.899	10.5
303.692	8.5
304.485	6.5
305.277	9.5
306.07	8.5
306.862	9.5
307.655	8.5
308.447	8.5
309.239	9.5
310.031	8.5
310.823	9.5
311.615	6.5
312.407	5.5
313.199	6.5
313.991	5.5
314.783	5.5
315.574	6.5
316.366	5.5
317.157	6.5
317.949	6.5
318.74	4.5
319.531	3.5
320.322	4.5
321.113	4.5
321.904	5.5
322.695	2.5
323.486	5.5
324.277	2.5
325.068	3.5
325.858	4.5
326.649	4.5
327.439	5.5
328.23	3.5
329.02	4.5
329.81	2.5
330.6	-0.5
331.391	6.5
332.181	2.5
332.971	3.5
333.76	3.5
334.55	3.5
335.34	4.5
336.13	2.5
336.919	4.5
337.709	3.5
338.498	4.5
339.287	5.5
340.077	5.5
340.866	5.5
341.655	1.5
342.444	2.5
343.233	1.5
344.022	4.5
344.811	5.5
345.6	4.5
346.388	2.5
347.177	2.5
347.965	2.5
348.754	4.5
349.542	3.5
350.33	3.5
351.119	4.5
351.907	2.5
352.695	2.5
353.483	4.5
354.271	1.5
355.059	3.5
355.846	2.5
356.634	2.5
357.422	2.5
358.209	2.5
358.997	3.5
359.784	2.5
360.571	2.5
361.359	4.5
362.146	2.5
362.933	2.5
363.72	5.5
364.507	3.5
365.294	1.5
366.081	4.5
366.867	5.5
367.654	2.5
368.44	3.5
369.227	3.5
370.013	0.5
370.8	3.5
371.586	4.5
372.372	3.5
373.158	1.5
373.944	3.5
374.73	1.5
375.516	2.5
376.302	1.5
377.088	2.5
377.873	3.5
378.659	2.5
379.445	4.5
380.23	3.5
381.015	4.5
381.801	4.5
382.586	3.5
383.371	2.5
384.156	2.5
384.941	4.5
385.726	3.5
386.511	4.5
387.296	2.5
388.08	1.5
388.865	3.5
389.649	3.5
390.434	3.5
391.218	4.5
392.003	2.5
392.787	2.5
393.571	4.5
394.355	3.5
395.139	3.5
395.923	3.5
396.707	2.5
397.491	3.5
398.274	2.5
399.058	2.5
399.842	6.5
400.625	1.5
401.408	6.5
402.192	2.5
402.975	5.5
403.758	2.5
404.541	4.5
405.324	3.5
406.107	1.5
406.89	4.5
407.673	4.5
408.456	6.5
409.238	3.5
410.021	1.5
410.803	3.5
411.586	5.5
412.368	5.5
413.151	4.5
413.933	4.5
414.715	5.5
415.497	5.5
416.279	6.5
417.061	2.5
417.843	6.5
418.624	5.5
419.406	3.5
420.188	5.5
420.969	8.5
421.751	5.5
422.532	3.5
423.313	4.5
424.095	7.5
424.876	7.5
425.657	5.5
426.438	7.5
427.219	6.5
428	7.5
428.78	8.5
429.561	6.5
430.342	8.5
431.122	5.5
431.903	8.5
432.683	9.5
433.464	9.5
434.244	8.5
435.024	7.5
435.804	8.5
436.584	8.5
437.364	8.5
438.144	11.5
438.924	10.5
439.704	10.5
440.483	11.5
441.263	9.5
442.042	12.5
442.822	13.5
443.601	14.5
444.38	15.5
445.16	17.5
445.939	17.5
446.718	20.5
447.497	19.5
448.276	20.5
449.054	21.5
449.833	22.5
450.612	25.5
451.391	27.5
452.169	30.5
452.948	31.5
453.726	33.5
454.504	39.5
455.282	41.5
456.061	44.5
456.839	52.5
457.617	55.5
458.395	63.5
459.172	70.5
459.95	73.5
460.728	85.5
461.506	95.5
462.283	103.5
463.061	119.5
463.838	126.5
464.615	140.5
465.393	162.5
466.17	178.5
466.947	203.5
467.724	220.5
468.501	242.5
469.278	275.5
470.055	307.5
470.831	334.5
471.608	379.5
472.385	423.5
473.161	472.5
473.938	521.5
474.714	574.5
475.49	631.5
476.266	709.5
477.043	776.5
477.819	866.5
478.595	955.5
479.371	1035.5
480.146	1151.5
480.922	1266.5
481.698	1410.5
482.473	1536.5
483.249	1690.5
484.024	1879.5
484.8	2061.5
485.575	2259.5
486.35	2489.5
487.126	2761.5
487.901	3016.5
488.676	3324.5
489.451	3611.5
490.225	3993.5
491	4379.5
491.775	4812.5
492.55	5251.5
493.324	5754.5
494.099	6292.5
494.873	6839.5
495.647	7449.5
496.422	8082.5
497.196	8752.5
497.97	9468.5
498.744	10191.5
499.518	10924.5
500.292	11623.5
501.066	12347.5
501.839	12997.5
502.613	13665.5
503.387	14320.5
504.16	14862.5
504.934	15326.5
505.707	15733.5
506.48	15987.5
507.253	16156.5
508.027	16190.5
508.8	16306.5
509.573	16109.5
510.346	15926.5
511.118	15613.5
511.891	15250.5
512.664	14810.5
513.437	14324.5
514.209	13804.5
514.982	13261.5
515.754	12749.5
516.526	12226.5
517.298	11675.5
518.071	11134.5
518.843	10645.5
519.615	10262.5
520.387	9801.5
521.159	9465.5
521.93	9027.5
522.702	8677.5
523.474	8352.5
524.245	7994.5
525.017	7704.5
525.788	7368.5
526.56	7077.5
527.331	6802.5
528.102	6500.5
528.873	6219.5
529.644	5945.5
530.415	5692.5
531.186	5411.5
531.957	5091.5
532.728	4861.5
533.498	4597.5
534.269	4346.5
535.039	4135.5
535.81	3892.5
536.58	3696.5
537.351	3472.5
538.121	3295.5
538.891	3117.5
539.661	2929.5
540.431	2796.5
541.201	2639.5
541.971	2475.5
542.741	2379.5
543.51	2250.5
544.28	2123.5
545.05	2027.5
545.819	1937.5
546.588	1822.5
547.358	1735.5
548.127	1669.5
548.896	1584.5
549.665	1482.5
550.434	1413.5
551.203	1343.5
551.972	1264.5
552.741	1195.5
553.51	1150.5
554.278	1079.5
555.047	1021.5
555.815	973.5
556.584	916.5
557.352	861.5
558.121	805.5
558.889	767.5
559.657	709.5
560.425	673.5
561.193	649.5
561.961	602.5
562.729	572.5
563.496	539.5
564.264	514.5
565.032	475.5
565.799	440.5
566.567	427.5
567.334	406.5
568.101	377.5
568.869	362.5
569.636	330.5
570.403	321.5
571.17	305.5
571.937	287.5
572.704	269.5
573.471	256.5
574.237	241.5
575.004	222.5
575.771	213.5
576.537	203.5
577.303	185.5
578.07	177.5
578.836	164.5
579.602	154.5
580.368	149.5
581.134	138.5
581.9	135.5
582.666	125.5
583.432	120.5
584.198	113.5
584.964	107.5
585.729	102.5
586.495	93.5
587.26	86.5
588.025	83.5
588.791	83.5
589.556	74.5
590.321	73.5
591.086	66.5
591.851	61.5
592.616	62.5
593.381	60.5
594.146	56.5
594.911	51.5
595.675	47.5
596.44	47.5
597.204	46.5
597.969	44.5
598.733	40.5
599.497	39.5
600.261	39.5
601.025	37.5
601.79	35.5
602.553	34.5
603.317	30.5
604.081	27.5
604.845	30.5
605.609	25.5
606.372	28.5
607.136	24.5
607.899	23.5
608.662	25.5
609.426	21.5
610.189	19.5
610.952	21.5
611.715	21.5
612.478	19.5
613.241	18.5
614.004	15.5
614.767	17.5
615.529	17.5
616.292	14.5
617.055	17.5
617.817	13.5
618.579	13.5
619.342	14.5
620.104	12.5
620.866	12.5
621.628	12.5
622.39	10.5
623.152	10.5
623.914	10.5
624.676	11.5
625.438	7.5
626.199	7.5
626.961	8.5
627.722	9.5
628.484	8.5
629.245	8.5
630.006	9.5
630.768	6.5
631.529	8.5
632.29	6.5
633.051	9.5
633.812	6.5
634.573	6.5
635.333	7.5
636.094	7.5
636.855	6.5
637.615	6.5
638.376	5.5
639.136	7.5
639.896	6.5
640.657	7.5
641.417	5.5
642.177	4.5
642.937	6.5
643.697	6.5
644.457	4.5
645.216	4.5
645.976	5.5
646.736	3.5
647.495	6.5
648.255	2.5
649.014	2.5
649.774	2.5
650.533	5.5
651.292	5.5
652.051	2.5
652.81	4.5
653.569	3.5
654.328	4.5
655.087	2.5
655.846	6.5
656.604	4.5
657.363	4.5
658.121	4.5
658.88	4.5
659.638	1.5
660.397	2.5
661.155	3.5
661.913	4.5
662.671	4.5
663.429	3.5
664.187	1.5
664.945	4.5
665.703	5.5
666.46	4.5
667.218	3.5
667.976	3.5
668.733	1.5
669.49	2.5
670.248	1.5
671.005	3.5
671.762	3.5
672.519	1.5
673.276	2.5
674.033	2.5
674.79	1.5
675.547	3.5
676.304	4.5
677.06	3.5
677.817	2.5
678.574	3.5
679.33	0.5
680.086	1.5
680.843	3.5
681.599	1.5
682.355	1.5
683.111	1.5
683.867	1.5
684.623	1.5
685.379	0.5
686.135	3.5
686.89	2.5
687.646	1.5
688.402	2.5
689.157	3.5
689.912	1.5
690.668	1.5
691.423	2.5
692.178	2.5
692.933	2.5
693.688	1.5
694.443	3.5
695.198	2.5
695.953	3.5
696.708	1.5
697.462	3.5
698.217	2.5
698.972	2.5
699.726	2.5
700.48	1.5
701.235	3.5
701.989	0.5
702.743	3.5
703.497	0.5
704.251	1.5
705.005	-0.5
705.759	2.5
706.513	3.5
707.266	2.5
708.02	3.5
708.774	1.5
709.527	3.5
710.28	0.5
711.034	2.5
711.787	0.5
712.54	0.5
713.293	3.5
714.046	4.5
714.799	0.5
715.552	1.5
716.305	-0.5
717.058	3.5
717.81	0.5
718.563	1.5
719.315	3.5
720.068	3.5
720.82	0.5
721.573	3.5
722.325	0.5
723.077	0.5
723.829	3.5
724.581	0.5
725.333	0.5
726.085	1.5
726.836	1.5
727.588	1.5
728.34	4.5
729.091	0.5
729.843	3.5
730.594	1.5
731.346	2.5
732.097	4.5
732.848	1.5
733.599	2.5
734.35	3.5
735.101	-1.5
735.852	2.5
736.603	0.5
737.354	2.5
738.104	1.5
738.855	3.5
739.605	3.5
740.356	1.5
741.106	4.5
741.856	3.5
742.607	2.5
743.357	3.5
744.107	1.5
744.857	3.5
745.607	2.5
746.357	0.5
747.106	2.5
747.856	3.5
748.606	0.5
749.355	2.5
750.105	3.5
750.854	3.5
751.603	1.5
752.353	1.5
753.102	2.5
753.851	2.5
754.6	2.5
755.349	1.5
756.098	3.5
756.847	4.5
757.595	0.5
758.344	5.5
759.093	1.5
759.841	2.5
760.589	1.5
761.338	2.5
762.086	3.5
762.834	3.5
763.582	2.5
764.331	5.5
765.079	3.5
765.826	4.5
766.574	3.5
767.322	3.5
768.07	2.5
768.817	3.5
769.565	2.5
770.312	1.5
771.06	4.5
771.807	4.5
772.554	3.5
773.302	7.5
774.049	4.5
774.796	5.5
775.543	3.5
776.29	7.5
777.036	2.5
777.783	4.5
778.53	3.5
779.276	6.5
780.023	2.5
780.769	6.5
781.516	5.5
782.262	3.5
783.008	5.5
783.754	5.5
784.5	5.5
785.246	3.5
785.992	5.5
786.738	8.5
787.484	5.5
788.23	6.5
788.975	6.5
789.721	7.5
790.466	5.5
791.212	3.5
791.957	7.5
792.702	2.5
793.447	4.5
794.193	5.5
794.938	4.5
795.683	5.5
796.427	5.5
797.172	6.5
797.917	2.5
798.662	3.5
799.406	3.5
800.151	5.5
800.895	8.5
801.64	5.5
802.384	4.5
803.128	5.5
803.872	5.5
804.616	5.5
805.36	5.5
806.104	1.5
806.848	2.5
807.592	5.5
808.336	4.5
809.079	1.5
809.823	4.5
810.566	2.5
811.31	2.5
812.053	3.5
812.796	4.5
813.539	2.5
814.283	3.5
815.026	2.5
815.769	3.5
816.511	5.5
817.254	3.5
817.997	4.5
818.74	3.5
819.482	2.5
820.225	2.5
820.967	2.5
821.71	3.5
822.452	2.5
823.194	5.5
823.936	3.5
824.678	2.5
825.42	4.5
826.162	2.5
826.904	2.5
827.646	3.5
828.388	2.5
829.129	4.5
829.871	3.5
830.612	1.5
831.354	4.5
832.095	2.5
832.836	2.5
833.577	2.5
834.319	1.5
835.06	3.5
835.801	2.5
836.542	0.5
837.282	4.5
838.023	2.5
838.764	3.5
839.504	1.5
840.245	4.5
840.985	1.5
841.726	3.5
842.466	1.5
843.206	2.5
843.946	1.5
844.687	1.5
845.427	2.5
846.166	5.5
846.906	2.5
847.646	2.5
848.386	1.5
849.125	3.5
849.865	3.5
850.605	1.5
851.344	2.5
852.083	2.5
852.823	3.5
853.562	1.5
854.301	2.5
855.04	2.5
855.779	0.5
856.518	1.5
857.257	2.5
857.995	2.5
858.734	0.5
859.473	2.5
860.211	2.5
860.95	1.5
861.688	2.5
862.426	0.5
863.165	2.5
863.903	1.5
864.641	1.5
865.379	2.5
866.117	1.5
866.855	1.5
867.593	-0.5
868.33	2.5
869.068	0.5
869.806	2.5
870.543	2.5
871.28	1.5
872.018	2.5
872.755	2.5
873.492	0.5
874.229	1.5
874.967	0.5
875.703	0.5
876.44	0.5
877.177	1.5
877.914	0.5
878.651	3.5
879.387	0.5
880.124	2.5
880.86	1.5
881.597	0.5
882.333	0.5
883.069	0.5
883.806	1.5
884.542	1.5
885.278	1.5
886.014	1.5
886.749	-0.5
887.485	3.5
888.221	1.5
888.957	2.5
889.692	1.5
890.428	0.5
891.163	2.5
891.899	2.5
892.634	3.5
893.369	1.5
894.104	0.5
894.839	1.5
895.574	-0.5
896.309	2.5
897.044	0.5
897.779	0.5
898.514	-0.5
899.248	-1.5
899.983	-1.5
900.717	0.5
901.452	1.5
902.186	-1.5
902.92	0.5
903.654	0.5
904.389	2.5
905.123	-0.5
905.857	1.5
906.59	1.5
907.324	1.5
908.058	0.5
908.792	1.5
909.525	1.5
910.259	0.5
910.992	1.5
911.726	-0.5
912.459	-2.5
913.192	1.5
913.925	0.5
914.658	-0.5
915.391	0.5
916.124	-0.5
916.857	0.5
917.59	1.5
918.323	0.5
919.055	0.5
919.788	1.5
920.521	2.5
921.253	0.5
921.985	0.5
922.718	-0.5
923.45	1.5
924.182	-0.5
924.914	1.5
925.646	0.5
926.378	3.5
927.11	0.5
927.841	-1.5
928.573	1.5
929.305	-1.5
930.036	-0.5
930.768	2.5
931.499	2.5
932.23	-0.5
932.962	2.5
933.693	1.5
934.424	-0.5
935.155	1.5
935.886	1.5
936.617	3.5
937.348	1.5
938.078	0.5
938.809	0.5
939.54	0.5
940.27	1.5
941.001	-1.5
941.731	1.5
942.461	0.5
943.191	1.5
943.922	1.5
944.652	1.5
945.382	0.5
946.112	0.5
946.841	0.5
947.571	2.5
948.301	-0.5
949.031	1.5
949.76	0.5
950.49	2.5
951.219	1.5
951.948	-1.5
952.678	-1.5
953.407	1.5
954.136	2.5
954.865	-0.5
955.594	1.5
956.323	-0.5
957.052	0.5
957.78	0.5
958.509	2.5
959.238	-0.5
959.966	-0.5
960.695	-0.5
961.423	-1.5
962.151	2.5
962.88	-0.5
963.608	-0.5
964.336	1.5
965.064	0.5
965.792	1.5
966.52	1.5
967.247	0.5
967.975	2.5
968.703	-2.5
969.43	-1.5
970.158	0.5
970.885	1.5
971.613	1.5
972.34	2.5
973.067	-2.5
973.794	-2.5
974.521	-0.5
975.248	-0.5
975.975	0.5
976.702	1.5
977.429	1.5
978.156	1.5
978.882	-2.5
979.609	0.5
980.335	-1.5
981.062	0.5
981.788	0.5
982.514	0.5
983.24	-1.5
983.967	1.5
984.693	1.5
985.419	0.5
986.144	1.5
986.87	1.5
987.596	-1.5
988.322	-1.5
989.047	0.5
989.773	1.5
990.498	-0.5
991.224	1.5
991.949	0.5
992.674	-1.5
993.399	2.5
994.124	1.5
994.849	0.5
995.574	0.5
996.299	0.5
997.024	-0.5
997.749	0.5
998.473	1.5
999.198	0.5
999.922	1.5
1000.647	-1.5
1001.371	4.5
1002.095	-1.5
1002.82	-0.5
1003.544	-1.5
1004.268	-0.5
1004.992	-0.5
1005.716	0.5
1006.439	-2.5
1007.163	2.5
1007.887	0.5
1008.611	0.5
1009.334	-0.5
1010.058	0.5
1010.781	1.5
1011.504	0.5
1012.228	0.5
1012.951	0.5
1013.674	0.5
1014.397	-0.5
1015.12	-1.5
