节点500_145_QEPB04081__140__11-31-10-610.txt的数据

Date: Wed Nov 12 11:31:10 CST 2025
User: PC
Spectrometer: QEPB0408
触发模式: 0
积分时间 (秒): 1.000000E-2
Scans to average: 1
启用暗噪声校正: true
启用非线性校正: false
滑动平均宽度: 0
X轴模式: Wavelengths
Number of Pixels in Spectrum: 1044
>>>>>Begin Spectral Data<<<<<
220.843	-1.38
221.644	-0.38
222.444	-2.38
223.244	-0.38
224.045	-1.38
224.845	-1.38
225.645	0.62
226.445	0.62
227.245	-1.38
228.045	-2.38
228.845	1.62
229.645	-1.38
230.444	1.62
231.244	0.62
232.043	2.62
232.843	3.62
233.642	-0.38
234.442	2.62
235.241	0.62
236.04	0.62
236.839	0.62
237.638	0.62
238.437	0.62
239.236	0.62
240.035	2.62
240.833	0.62
241.632	-0.38
242.43	0.62
243.229	1.62
244.027	1.62
244.826	0.62
245.624	1.62
246.422	1.62
247.22	0.62
248.018	2.62
248.816	3.62
249.614	2.62
250.412	1.62
251.21	3.62
252.007	3.62
252.805	6.62
253.602	3.62
254.4	0.62
255.197	3.62
255.994	1.62
256.791	2.62
257.589	5.62
258.386	-1.38
259.183	4.62
259.979	4.62
260.776	4.62
261.573	5.62
262.37	5.62
263.166	3.62
263.963	5.62
264.759	6.62
265.556	5.62
266.352	5.62
267.148	5.62
267.944	7.62
268.74	5.62
269.536	5.62
270.332	5.62
271.128	8.62
271.924	9.62
272.719	8.62
273.515	7.62
274.311	8.62
275.106	8.62
275.901	9.62
276.697	9.62
277.492	9.62
278.287	10.62
279.082	10.62
279.877	10.62
280.672	9.62
281.467	11.62
282.262	9.62
283.056	8.62
283.851	11.62
284.646	10.62
285.44	10.62
286.234	13.62
287.029	10.62
287.823	9.62
288.617	10.62
289.411	12.62
290.205	8.62
290.999	9.62
291.793	9.62
292.587	11.62
293.381	8.62
294.174	9.62
294.968	11.62
295.761	7.62
296.555	11.62
297.348	9.62
298.141	9.62
298.935	6.62
299.728	9.62
300.521	9.62
301.314	6.62
302.107	8.62
302.899	8.62
303.692	11.62
304.485	7.62
305.277	7.62
306.07	8.62
306.862	8.62
307.655	7.62
308.447	7.62
309.239	6.62
310.031	5.62
310.823	7.62
311.615	6.62
312.407	7.62
313.199	6.62
313.991	1.62
314.783	4.62
315.574	1.62
316.366	4.62
317.157	7.62
317.949	4.62
318.74	4.62
319.531	5.62
320.322	6.62
321.113	3.62
321.904	4.62
322.695	4.62
323.486	2.62
324.277	3.62
325.068	4.62
325.858	4.62
326.649	2.62
327.439	4.62
328.23	3.62
329.02	3.62
329.81	6.62
330.6	1.62
331.391	4.62
332.181	1.62
332.971	4.62
333.76	4.62
334.55	1.62
335.34	3.62
336.13	4.62
336.919	3.62
337.709	0.62
338.498	4.62
339.287	2.62
340.077	1.62
340.866	3.62
341.655	1.62
342.444	4.62
343.233	1.62
344.022	2.62
344.811	2.62
345.6	2.62
346.388	3.62
347.177	4.62
347.965	1.62
348.754	3.62
349.542	2.62
350.33	2.62
351.119	2.62
351.907	3.62
352.695	3.62
353.483	1.62
354.271	1.62
355.059	4.62
355.846	3.62
356.634	2.62
357.422	3.62
358.209	1.62
358.997	3.62
359.784	1.62
360.571	4.62
361.359	3.62
362.146	0.62
362.933	3.62
363.72	2.62
364.507	0.62
365.294	2.62
366.081	2.62
366.867	1.62
367.654	1.62
368.44	1.62
369.227	1.62
370.013	4.62
370.8	2.62
371.586	0.62
372.372	2.62
373.158	2.62
373.944	2.62
374.73	4.62
375.516	1.62
376.302	2.62
377.088	2.62
377.873	1.62
378.659	3.62
379.445	3.62
380.23	0.62
381.015	4.62
381.801	2.62
382.586	1.62
383.371	2.62
384.156	3.62
384.941	3.62
385.726	2.62
386.511	0.62
387.296	2.62
388.08	2.62
388.865	0.62
389.649	3.62
390.434	1.62
391.218	1.62
392.003	0.62
392.787	1.62
393.571	3.62
394.355	3.62
395.139	2.62
395.923	1.62
396.707	1.62
397.491	0.62
398.274	0.62
399.058	1.62
399.842	4.62
400.625	1.62
401.408	1.62
402.192	5.62
402.975	4.62
403.758	4.62
404.541	2.62
405.324	2.62
406.107	0.62
406.89	0.62
407.673	5.62
408.456	3.62
409.238	4.62
410.021	6.62
410.803	3.62
411.586	4.62
412.368	2.62
413.151	2.62
413.933	2.62
414.715	3.62
415.497	2.62
416.279	3.62
417.061	3.62
417.843	3.62
418.624	6.62
419.406	3.62
420.188	4.62
420.969	6.62
421.751	3.62
422.532	5.62
423.313	5.62
424.095	4.62
424.876	6.62
425.657	4.62
426.438	8.62
427.219	5.62
428	5.62
428.78	6.62
429.561	7.62
430.342	5.62
431.122	8.62
431.903	7.62
432.683	7.62
433.464	9.62
434.244	6.62
435.024	9.62
435.804	8.62
436.584	9.62
437.364	10.62
438.144	8.62
438.924	9.62
439.704	10.62
440.483	12.62
441.263	12.62
442.042	10.62
442.822	12.62
443.601	13.62
444.38	11.62
445.16	15.62
445.939	18.62
446.718	14.62
447.497	20.62
448.276	20.62
449.054	21.62
449.833	23.62
450.612	23.62
451.391	22.62
452.169	29.62
452.948	29.62
453.726	32.62
454.504	38.62
455.282	39.62
456.061	39.62
456.839	45.62
457.617	52.62
458.395	55.62
459.172	61.62
459.95	70.62
460.728	74.62
461.506	88.62
462.283	94.62
463.061	107.62
463.838	117.62
464.615	133.62
465.393	143.62
466.17	162.62
466.947	184.62
467.724	201.62
468.501	229.62
469.278	254.62
470.055	284.62
470.831	317.62
471.608	356.62
472.385	397.62
473.161	435.62
473.938	496.62
474.714	555.62
475.49	605.62
476.266	682.62
477.043	748.62
477.819	844.62
478.595	922.62
479.371	1023.62
480.146	1150.62
480.922	1267.62
481.698	1397.62
482.473	1550.62
483.249	1721.62
484.024	1900.62
484.8	2103.62
485.575	2313.62
486.35	2581.62
487.126	2860.62
487.901	3141.62
488.676	3484.62
489.451	3868.62
490.225	4246.62
491	4701.62
491.775	5190.62
492.55	5674.62
493.324	6260.62
494.099	6824.62
494.873	7510.62
495.647	8203.62
496.422	8898.62
497.196	9639.62
497.97	10439.62
498.744	11175.62
499.518	12058.62
500.292	12835.62
501.066	13604.62
501.839	14306.62
502.613	14978.62
503.387	15610.62
504.16	16168.62
504.934	16522.62
505.707	16945.62
506.48	17161.62
507.253	17208.62
508.027	17211.62
508.8	17042.62
509.573	16860.62
510.346	16493.62
511.118	16097.62
511.891	15607.62
512.664	14990.62
513.437	14473.62
514.209	13868.62
514.982	13292.62
515.754	12723.62
516.526	12167.62
517.298	11589.62
518.071	11077.62
518.843	10570.62
519.615	10145.62
520.387	9688.62
521.159	9346.62
521.93	8927.62
522.702	8537.62
523.474	8253.62
524.245	7946.62
525.017	7608.62
525.788	7288.62
526.56	6974.62
527.331	6721.62
528.102	6369.62
528.873	6106.62
529.644	5812.62
530.415	5561.62
531.186	5262.62
531.957	5000.62
532.728	4738.62
533.498	4480.62
534.269	4248.62
535.039	3978.62
535.81	3745.62
536.58	3554.62
537.351	3352.62
538.121	3163.62
538.891	2987.62
539.661	2829.62
540.431	2664.62
541.201	2552.62
541.971	2388.62
542.741	2255.62
543.51	2154.62
544.28	2028.62
545.05	1936.62
545.819	1858.62
546.588	1753.62
547.358	1663.62
548.127	1577.62
548.896	1516.62
549.665	1434.62
550.434	1358.62
551.203	1289.62
551.972	1226.62
552.741	1157.62
553.51	1083.62
554.278	1021.62
555.047	969.62
555.815	910.62
556.584	856.62
557.352	811.62
558.121	760.62
558.889	718.62
559.657	672.62
560.425	635.62
561.193	597.62
561.961	558.62
562.729	536.62
563.496	505.62
564.264	477.62
565.032	446.62
565.799	424.62
566.567	402.62
567.334	377.62
568.101	359.62
568.869	337.62
569.636	316.62
570.403	302.62
571.17	285.62
571.937	270.62
572.704	253.62
573.471	240.62
574.237	228.62
575.004	216.62
575.771	195.62
576.537	183.62
577.303	170.62
578.07	164.62
578.836	152.62
579.602	150.62
580.368	139.62
581.134	131.62
581.9	126.62
582.666	125.62
583.432	113.62
584.198	103.62
584.964	100.62
585.729	94.62
586.495	85.62
587.26	79.62
588.025	80.62
588.791	73.62
589.556	71.62
590.321	68.62
591.086	64.62
591.851	61.62
592.616	55.62
593.381	57.62
594.146	53.62
594.911	47.62
595.675	46.62
596.44	42.62
597.204	40.62
597.969	37.62
598.733	39.62
599.497	37.62
600.261	34.62
601.025	33.62
601.79	32.62
602.553	32.62
603.317	27.62
604.081	28.62
604.845	24.62
605.609	24.62
606.372	25.62
607.136	22.62
607.899	23.62
608.662	20.62
609.426	22.62
610.189	17.62
610.952	19.62
611.715	19.62
612.478	16.62
613.241	13.62
614.004	14.62
614.767	16.62
615.529	15.62
616.292	14.62
617.055	13.62
617.817	15.62
618.579	12.62
619.342	9.62
620.104	12.62
620.866	10.62
621.628	9.62
622.39	11.62
623.152	9.62
623.914	10.62
624.676	10.62
625.438	10.62
626.199	8.62
626.961	10.62
627.722	10.62
628.484	8.62
629.245	9.62
630.006	5.62
630.768	5.62
631.529	7.62
632.29	7.62
633.051	6.62
633.812	5.62
634.573	6.62
635.333	3.62
636.094	6.62
636.855	7.62
637.615	5.62
638.376	5.62
639.136	4.62
639.896	5.62
640.657	2.62
641.417	3.62
642.177	5.62
642.937	3.62
643.697	4.62
644.457	2.62
645.216	5.62
645.976	1.62
646.736	3.62
647.495	2.62
648.255	4.62
649.014	4.62
649.774	4.62
650.533	5.62
651.292	3.62
652.051	4.62
652.81	1.62
653.569	1.62
654.328	3.62
655.087	3.62
655.846	3.62
656.604	2.62
657.363	2.62
658.121	2.62
658.88	0.62
659.638	4.62
660.397	4.62
661.155	2.62
661.913	0.62
662.671	2.62
663.429	0.62
664.187	1.62
664.945	2.62
665.703	-0.38
666.46	1.62
667.218	0.62
667.976	1.62
668.733	3.62
669.49	4.62
670.248	2.62
671.005	4.62
671.762	2.62
672.519	0.62
673.276	0.62
674.033	3.62
674.79	1.62
675.547	0.62
676.304	1.62
677.06	1.62
677.817	4.62
678.574	2.62
679.33	3.62
680.086	-1.38
680.843	1.62
681.599	1.62
682.355	0.62
683.111	4.62
683.867	0.62
684.623	1.62
685.379	0.62
686.135	2.62
686.89	1.62
687.646	0.62
688.402	1.62
689.157	2.62
689.912	0.62
690.668	0.62
691.423	2.62
692.178	1.62
692.933	0.62
693.688	0.62
694.443	0.62
695.198	1.62
695.953	0.62
696.708	0.62
697.462	4.62
698.217	0.62
698.972	0.62
699.726	0.62
700.48	4.62
701.235	1.62
701.989	1.62
702.743	-0.38
703.497	1.62
704.251	2.62
705.005	1.62
705.759	1.62
706.513	4.62
707.266	1.62
708.02	1.62
708.774	1.62
709.527	-0.38
710.28	1.62
711.034	1.62
711.787	1.62
712.54	0.62
713.293	1.62
714.046	3.62
714.799	1.62
715.552	-0.38
716.305	2.62
717.058	1.62
717.81	1.62
718.563	2.62
719.315	0.62
720.068	0.62
720.82	1.62
721.573	3.62
722.325	3.62
723.077	4.62
723.829	0.62
724.581	2.62
725.333	0.62
726.085	1.62
726.836	1.62
727.588	0.62
728.34	1.62
729.091	0.62
729.843	-0.38
730.594	0.62
731.346	0.62
732.097	2.62
732.848	1.62
733.599	0.62
734.35	1.62
735.101	2.62
735.852	0.62
736.603	0.62
737.354	1.62
738.104	4.62
738.855	0.62
739.605	3.62
740.356	2.62
741.106	1.62
741.856	3.62
742.607	1.62
743.357	1.62
744.107	2.62
744.857	2.62
745.607	3.62
746.357	2.62
747.106	-0.38
747.856	1.62
748.606	2.62
749.355	1.62
750.105	4.62
750.854	2.62
751.603	2.62
752.353	0.62
753.102	1.62
753.851	1.62
754.6	2.62
755.349	3.62
756.098	1.62
756.847	4.62
757.595	1.62
758.344	2.62
759.093	4.62
759.841	1.62
760.589	5.62
761.338	3.62
762.086	2.62
762.834	1.62
763.582	4.62
764.331	2.62
765.079	5.62
765.826	4.62
766.574	4.62
767.322	4.62
768.07	4.62
768.817	2.62
769.565	3.62
770.312	4.62
771.06	2.62
771.807	4.62
772.554	4.62
773.302	2.62
774.049	2.62
774.796	6.62
775.543	3.62
776.29	4.62
777.036	3.62
777.783	6.62
778.53	7.62
779.276	4.62
780.023	3.62
780.769	4.62
781.516	4.62
782.262	4.62
783.008	4.62
783.754	5.62
784.5	4.62
785.246	3.62
785.992	3.62
786.738	3.62
787.484	3.62
788.23	2.62
788.975	4.62
789.721	4.62
790.466	4.62
791.212	3.62
791.957	4.62
792.702	5.62
793.447	6.62
794.193	4.62
794.938	2.62
795.683	4.62
796.427	3.62
797.172	4.62
797.917	4.62
798.662	3.62
799.406	3.62
800.151	4.62
800.895	3.62
801.64	4.62
802.384	4.62
803.128	3.62
803.872	0.62
804.616	5.62
805.36	4.62
806.104	4.62
806.848	2.62
807.592	3.62
808.336	3.62
809.079	4.62
809.823	4.62
810.566	3.62
811.31	2.62
812.053	1.62
812.796	2.62
813.539	3.62
814.283	1.62
815.026	3.62
815.769	4.62
816.511	2.62
817.254	4.62
817.997	0.62
818.74	2.62
819.482	1.62
820.225	2.62
820.967	-0.38
821.71	4.62
822.452	1.62
823.194	0.62
823.936	5.62
824.678	-1.38
825.42	2.62
826.162	1.62
826.904	1.62
827.646	2.62
828.388	0.62
829.129	3.62
829.871	2.62
830.612	2.62
831.354	1.62
832.095	0.62
832.836	3.62
833.577	0.62
834.319	1.62
835.06	2.62
835.801	2.62
836.542	1.62
837.282	0.62
838.023	1.62
838.764	3.62
839.504	2.62
840.245	0.62
840.985	5.62
841.726	1.62
842.466	2.62
843.206	2.62
843.946	0.62
844.687	2.62
845.427	1.62
846.166	3.62
846.906	0.62
847.646	2.62
848.386	1.62
849.125	1.62
849.865	2.62
850.605	1.62
851.344	1.62
852.083	3.62
852.823	1.62
853.562	-0.38
854.301	0.62
855.04	1.62
855.779	0.62
856.518	3.62
857.257	0.62
857.995	-0.38
858.734	0.62
859.473	0.62
860.211	1.62
860.95	0.62
861.688	0.62
862.426	1.62
863.165	-0.38
863.903	-0.38
864.641	0.62
865.379	-0.38
866.117	0.62
866.855	-0.38
867.593	1.62
868.33	0.62
869.068	1.62
869.806	-3.38
870.543	0.62
871.28	-2.38
872.018	-0.38
872.755	3.62
873.492	1.62
874.229	1.62
874.967	-0.38
875.703	1.62
876.44	1.62
877.177	0.62
877.914	1.62
878.651	1.62
879.387	1.62
880.124	0.62
880.86	0.62
881.597	0.62
882.333	0.62
883.069	-1.38
883.806	0.62
884.542	1.62
885.278	0.62
886.014	1.62
886.749	0.62
887.485	0.62
888.221	3.62
888.957	-0.38
889.692	1.62
890.428	1.62
891.163	0.62
891.899	0.62
892.634	-1.38
893.369	-1.38
894.104	0.62
894.839	-1.38
895.574	0.62
896.309	-0.38
897.044	0.62
897.779	0.62
898.514	1.62
899.248	-0.38
899.983	0.62
900.717	0.62
901.452	-0.38
902.186	-0.38
902.92	-0.38
903.654	-1.38
904.389	-0.38
905.123	1.62
905.857	-1.38
906.59	-2.38
907.324	1.62
908.058	-0.38
908.792	-0.38
909.525	-2.38
910.259	0.62
910.992	0.62
911.726	-0.38
912.459	-0.38
913.192	0.62
913.925	1.62
914.658	-1.38
915.391	0.62
916.124	-1.38
916.857	-1.38
917.59	-0.38
918.323	0.62
919.055	1.62
919.788	1.62
920.521	0.62
921.253	-0.38
921.985	-2.38
922.718	-0.38
923.45	-0.38
924.182	0.62
924.914	-0.38
925.646	-0.38
926.378	-1.38
927.11	-0.38
927.841	-0.38
928.573	-0.38
929.305	-0.38
930.036	0.62
930.768	1.62
931.499	1.62
932.23	-0.38
932.962	-2.38
933.693	-2.38
934.424	-0.38
935.155	2.62
935.886	0.62
936.617	1.62
937.348	0.62
938.078	-0.38
938.809	-1.38
939.54	0.62
940.27	-0.38
941.001	-1.38
941.731	0.62
942.461	-2.38
943.191	-1.38
943.922	-0.38
944.652	-1.38
945.382	-0.38
946.112	-1.38
946.841	0.62
947.571	1.62
948.301	0.62
949.031	-2.38
949.76	-0.38
950.49	-0.38
951.219	0.62
951.948	-0.38
952.678	-2.38
953.407	0.62
954.136	-0.38
954.865	-0.38
955.594	0.62
956.323	-1.38
957.052	0.62
957.78	-1.38
958.509	0.62
959.238	-0.38
959.966	0.62
960.695	-0.38
961.423	0.62
962.151	0.62
962.88	-0.38
963.608	-0.38
964.336	-0.38
965.064	0.62
965.792	-0.38
966.52	-0.38
967.247	1.62
967.975	-0.38
968.703	-1.38
969.43	0.62
970.158	-3.38
970.885	-2.38
971.613	0.62
972.34	-0.38
973.067	-2.38
973.794	-0.38
974.521	1.62
975.248	1.62
975.975	1.62
976.702	-1.38
977.429	-1.38
978.156	1.62
978.882	-1.38
979.609	-2.38
980.335	0.62
981.062	0.62
981.788	-0.38
982.514	-0.38
983.24	2.62
983.967	0.62
984.693	-0.38
985.419	-2.38
986.144	-0.38
986.87	-0.38
987.596	1.62
988.322	-0.38
989.047	0.62
989.773	0.62
990.498	-2.38
991.224	0.62
991.949	0.62
992.674	0.62
993.399	0.62
994.124	0.62
994.849	0.62
995.574	-2.38
996.299	-0.38
997.024	-2.38
997.749	0.62
998.473	-1.38
999.198	-2.38
999.922	0.62
1000.647	-0.38
1001.371	3.62
1002.095	0.62
1002.82	-2.38
1003.544	-1.38
1004.268	0.62
1004.992	0.62
1005.716	-0.38
1006.439	-2.38
1007.163	-0.38
1007.887	1.62
1008.611	0.62
1009.334	-0.38
1010.058	1.62
1010.781	0.62
1011.504	-1.38
1012.228	1.62
1012.951	-1.38
1013.674	1.62
1014.397	0.62
1015.12	-1.38
