节点500_145_QEPB04081__2__11-28-58-827.txt的数据

Date: Wed Nov 12 11:28:58 CST 2025
User: PC
Spectrometer: QEPB0408
触发模式: 0
积分时间 (秒): 1.000000E-2
Scans to average: 1
启用暗噪声校正: true
启用非线性校正: false
滑动平均宽度: 0
X轴模式: Wavelengths
Number of Pixels in Spectrum: 1044
>>>>>Begin Spectral Data<<<<<
220.843	-2.38
221.644	-3.38
222.444	-2.38
223.244	-1.38
224.045	-2.38
224.845	-4.38
225.645	-1.38
226.445	-3.38
227.245	-2.38
228.045	-2.38
228.845	-1.38
229.645	-2.38
230.444	-1.38
231.244	-2.38
232.043	-3.38
232.843	-2.38
233.642	-0.38
234.442	-2.38
235.241	-2.38
236.04	-2.38
236.839	0.62
237.638	-1.38
238.437	-4.38
239.236	-1.38
240.035	-1.38
240.833	-4.38
241.632	-2.38
242.43	-1.38
243.229	-3.38
244.027	-2.38
244.826	-1.38
245.624	-0.38
246.422	0.62
247.22	-2.38
248.018	-2.38
248.816	-2.38
249.614	-0.38
250.412	-2.38
251.21	-1.38
252.007	-1.38
252.805	-2.38
253.602	-2.38
254.4	-2.38
255.197	-2.38
255.994	-2.38
256.791	-3.38
257.589	-2.38
258.386	-2.38
259.183	-0.38
259.979	-1.38
260.776	-0.38
261.573	-0.38
262.37	-1.38
263.166	-2.38
263.963	-2.38
264.759	-1.38
265.556	-4.38
266.352	-2.38
267.148	-1.38
267.944	-4.38
268.74	-0.38
269.536	-3.38
270.332	-0.38
271.128	-3.38
271.924	-0.38
272.719	-3.38
273.515	-2.38
274.311	-1.38
275.106	-1.38
275.901	-2.38
276.697	1.62
277.492	-0.38
278.287	-1.38
279.082	-2.38
279.877	-1.38
280.672	-3.38
281.467	-1.38
282.262	-0.38
283.056	0.62
283.851	-3.38
284.646	-1.38
285.44	-0.38
286.234	-1.38
287.029	0.62
287.823	-1.38
288.617	1.62
289.411	0.62
290.205	-1.38
290.999	-2.38
291.793	-2.38
292.587	-3.38
293.381	0.62
294.174	-1.38
294.968	-1.38
295.761	0.62
296.555	-2.38
297.348	-2.38
298.141	-0.38
298.935	-2.38
299.728	-0.38
300.521	-2.38
301.314	-1.38
302.107	-1.38
302.899	-1.38
303.692	-0.38
304.485	-1.38
305.277	0.62
306.07	-0.38
306.862	-3.38
307.655	-0.38
308.447	-0.38
309.239	-1.38
310.031	-0.38
310.823	-2.38
311.615	1.62
312.407	-3.38
313.199	-2.38
313.991	0.62
314.783	0.62
315.574	-1.38
316.366	-1.38
317.157	-0.38
317.949	-1.38
318.74	-1.38
319.531	-1.38
320.322	-3.38
321.113	-1.38
321.904	-0.38
322.695	-0.38
323.486	-1.38
324.277	-2.38
325.068	-0.38
325.858	-0.38
326.649	-1.38
327.439	-0.38
328.23	-1.38
329.02	-1.38
329.81	0.62
330.6	-2.38
331.391	-1.38
332.181	-0.38
332.971	-2.38
333.76	-1.38
334.55	-0.38
335.34	0.62
336.13	-0.38
336.919	-2.38
337.709	1.62
338.498	-2.38
339.287	-2.38
340.077	-0.38
340.866	-2.38
341.655	-2.38
342.444	-0.38
343.233	-1.38
344.022	-0.38
344.811	-0.38
345.6	-2.38
346.388	0.62
347.177	-2.38
347.965	-2.38
348.754	-0.38
349.542	0.62
350.33	-2.38
351.119	-0.38
351.907	-0.38
352.695	0.62
353.483	-3.38
354.271	0.62
355.059	0.62
355.846	-2.38
356.634	-2.38
357.422	0.62
358.209	-1.38
358.997	-2.38
359.784	-0.38
360.571	-4.38
361.359	-1.38
362.146	2.62
362.933	-2.38
363.72	-1.38
364.507	0.62
365.294	-0.38
366.081	-0.38
366.867	0.62
367.654	-2.38
368.44	-1.38
369.227	-1.38
370.013	0.62
370.8	-1.38
371.586	0.62
372.372	-1.38
373.158	-2.38
373.944	-2.38
374.73	-2.38
375.516	-0.38
376.302	-1.38
377.088	-1.38
377.873	-1.38
378.659	-2.38
379.445	-3.38
380.23	1.62
381.015	0.62
381.801	-1.38
382.586	0.62
383.371	-2.38
384.156	-1.38
384.941	-2.38
385.726	1.62
386.511	0.62
387.296	-1.38
388.08	0.62
388.865	-1.38
389.649	0.62
390.434	-2.38
391.218	-1.38
392.003	0.62
392.787	-0.38
393.571	-0.38
394.355	-0.38
395.139	-0.38
395.923	-1.38
396.707	-0.38
397.491	-1.38
398.274	0.62
399.058	0.62
399.842	1.62
400.625	-2.38
401.408	-0.38
402.192	-0.38
402.975	-2.38
403.758	-2.38
404.541	-0.38
405.324	-0.38
406.107	2.62
406.89	0.62
407.673	-1.38
408.456	-2.38
409.238	-1.38
410.021	0.62
410.803	-0.38
411.586	-1.38
412.368	0.62
413.151	-0.38
413.933	1.62
414.715	-3.38
415.497	0.62
416.279	-0.38
417.061	-1.38
417.843	0.62
418.624	-0.38
419.406	-0.38
420.188	-2.38
420.969	-0.38
421.751	-1.38
422.532	-0.38
423.313	-0.38
424.095	-1.38
424.876	0.62
425.657	0.62
426.438	-0.38
427.219	0.62
428	-0.38
428.78	-0.38
429.561	-3.38
430.342	-1.38
431.122	-0.38
431.903	-0.38
432.683	-2.38
433.464	-0.38
434.244	-0.38
435.024	-1.38
435.804	-2.38
436.584	-0.38
437.364	-0.38
438.144	-2.38
438.924	-2.38
439.704	1.62
440.483	-0.38
441.263	-1.38
442.042	0.62
442.822	-1.38
443.601	-0.38
444.38	0.62
445.16	-1.38
445.939	0.62
446.718	-1.38
447.497	-1.38
448.276	-1.38
449.054	0.62
449.833	-1.38
450.612	-1.38
451.391	-2.38
452.169	-1.38
452.948	0.62
453.726	-0.38
454.504	-0.38
455.282	-2.38
456.061	-1.38
456.839	-3.38
457.617	-0.38
458.395	-0.38
459.172	-1.38
459.95	-1.38
460.728	-2.38
461.506	-2.38
462.283	0.62
463.061	-0.38
463.838	-0.38
464.615	-0.38
465.393	1.62
466.17	-2.38
466.947	0.62
467.724	-1.38
468.501	-0.38
469.278	0.62
470.055	-3.38
470.831	0.62
471.608	1.62
472.385	0.62
473.161	-0.38
473.938	-2.38
474.714	-0.38
475.49	-2.38
476.266	-1.38
477.043	-2.38
477.819	0.62
478.595	-0.38
479.371	-1.38
480.146	0.62
480.922	0.62
481.698	-0.38
482.473	-0.38
483.249	-0.38
484.024	-0.38
484.8	-2.38
485.575	0.62
486.35	-2.38
487.126	-0.38
487.901	1.62
488.676	-1.38
489.451	-0.38
490.225	-2.38
491	-0.38
491.775	0.62
492.55	-1.38
493.324	0.62
494.099	-0.38
494.873	-1.38
495.647	-1.38
496.422	-0.38
497.196	-1.38
497.97	-2.38
498.744	-0.38
499.518	-0.38
500.292	-2.38
501.066	-0.38
501.839	0.62
502.613	-2.38
503.387	2.62
504.16	2.62
504.934	-3.38
505.707	-0.38
506.48	-1.38
507.253	0.62
508.027	-0.38
508.8	-0.38
509.573	0.62
510.346	-1.38
511.118	0.62
511.891	-0.38
512.664	-1.38
513.437	-0.38
514.209	-1.38
514.982	-2.38
515.754	-1.38
516.526	0.62
517.298	0.62
518.071	-1.38
518.843	-0.38
519.615	-0.38
520.387	-1.38
521.159	-2.38
521.93	-0.38
522.702	-1.38
523.474	-0.38
524.245	2.62
525.017	1.62
525.788	-0.38
526.56	-2.38
527.331	1.62
528.102	-0.38
528.873	-0.38
529.644	0.62
530.415	0.62
531.186	0.62
531.957	-1.38
532.728	-0.38
533.498	-0.38
534.269	-2.38
535.039	0.62
535.81	0.62
536.58	-0.38
537.351	-3.38
538.121	-1.38
538.891	-0.38
539.661	-0.38
540.431	0.62
541.201	0.62
541.971	-1.38
542.741	0.62
543.51	-0.38
544.28	-2.38
545.05	-2.38
545.819	-2.38
546.588	-2.38
547.358	-1.38
548.127	-0.38
548.896	-1.38
549.665	-2.38
550.434	-1.38
551.203	0.62
551.972	-2.38
552.741	-0.38
553.51	-2.38
554.278	-0.38
555.047	0.62
555.815	-1.38
556.584	-0.38
557.352	0.62
558.121	-0.38
558.889	-0.38
559.657	0.62
560.425	-2.38
561.193	-0.38
561.961	-2.38
562.729	-0.38
563.496	0.62
564.264	-2.38
565.032	0.62
565.799	-2.38
566.567	-0.38
567.334	0.62
568.101	-2.38
568.869	-0.38
569.636	0.62
570.403	-0.38
571.17	0.62
571.937	-0.38
572.704	1.62
573.471	0.62
574.237	-0.38
575.004	-3.38
575.771	-1.38
576.537	0.62
577.303	-1.38
578.07	0.62
578.836	-2.38
579.602	-3.38
580.368	-1.38
581.134	-1.38
581.9	1.62
582.666	-0.38
583.432	0.62
584.198	1.62
584.964	-0.38
585.729	-1.38
586.495	-0.38
587.26	1.62
588.025	0.62
588.791	0.62
589.556	0.62
590.321	-0.38
591.086	-2.38
591.851	-2.38
592.616	0.62
593.381	0.62
594.146	1.62
594.911	-1.38
595.675	-1.38
596.44	-0.38
597.204	0.62
597.969	0.62
598.733	1.62
599.497	-3.38
600.261	0.62
601.025	-1.38
601.79	-2.38
602.553	0.62
603.317	1.62
604.081	-2.38
604.845	-2.38
605.609	-1.38
606.372	0.62
607.136	0.62
607.899	-1.38
608.662	0.62
609.426	-0.38
610.189	0.62
610.952	0.62
611.715	-0.38
612.478	-0.38
613.241	0.62
614.004	-1.38
614.767	-1.38
615.529	-2.38
616.292	0.62
617.055	-0.38
617.817	-0.38
618.579	-1.38
619.342	1.62
620.104	1.62
620.866	0.62
621.628	0.62
622.39	0.62
623.152	-0.38
623.914	-4.38
624.676	-1.38
625.438	-0.38
626.199	1.62
626.961	0.62
627.722	-2.38
628.484	0.62
629.245	0.62
630.006	-1.38
630.768	-0.38
631.529	-0.38
632.29	0.62
633.051	0.62
633.812	1.62
634.573	-0.38
635.333	0.62
636.094	-0.38
636.855	-1.38
637.615	0.62
638.376	0.62
639.136	1.62
639.896	-2.38
640.657	-2.38
641.417	-1.38
642.177	-1.38
642.937	-1.38
643.697	-1.38
644.457	-1.38
645.216	-1.38
645.976	-1.38
646.736	0.62
647.495	-0.38
648.255	0.62
649.014	-0.38
649.774	-1.38
650.533	-2.38
651.292	-1.38
652.051	-1.38
652.81	-2.38
653.569	-1.38
654.328	0.62
655.087	-1.38
655.846	-0.38
656.604	-0.38
657.363	-0.38
658.121	-1.38
658.88	0.62
659.638	-0.38
660.397	2.62
661.155	-0.38
661.913	1.62
662.671	-0.38
663.429	-0.38
664.187	-1.38
664.945	1.62
665.703	-0.38
666.46	2.62
667.218	-0.38
667.976	-0.38
668.733	-2.38
669.49	-0.38
670.248	0.62
671.005	0.62
671.762	-3.38
672.519	0.62
673.276	-0.38
674.033	0.62
674.79	0.62
675.547	0.62
676.304	-1.38
677.06	1.62
677.817	-1.38
678.574	0.62
679.33	-0.38
680.086	0.62
680.843	-2.38
681.599	-2.38
682.355	-0.38
683.111	-0.38
683.867	-1.38
684.623	-1.38
685.379	1.62
686.135	1.62
686.89	-0.38
687.646	1.62
688.402	-0.38
689.157	1.62
689.912	-2.38
690.668	-0.38
691.423	-2.38
692.178	-2.38
692.933	0.62
693.688	-1.38
694.443	-1.38
695.198	-0.38
695.953	0.62
696.708	1.62
697.462	-1.38
698.217	-0.38
698.972	-0.38
699.726	0.62
700.48	-2.38
701.235	-1.38
701.989	0.62
702.743	-0.38
703.497	-2.38
704.251	-1.38
705.005	-0.38
705.759	-0.38
706.513	-0.38
707.266	-0.38
708.02	0.62
708.774	-0.38
709.527	0.62
710.28	0.62
711.034	-0.38
711.787	-1.38
712.54	-1.38
713.293	-0.38
714.046	0.62
714.799	1.62
715.552	-0.38
716.305	-0.38
717.058	0.62
717.81	-1.38
718.563	1.62
719.315	0.62
720.068	0.62
720.82	-1.38
721.573	-2.38
722.325	-0.38
723.077	0.62
723.829	-0.38
724.581	-1.38
725.333	-0.38
726.085	-1.38
726.836	-2.38
727.588	1.62
728.34	-1.38
729.091	-1.38
729.843	0.62
730.594	0.62
731.346	1.62
732.097	0.62
732.848	-1.38
733.599	0.62
734.35	-0.38
735.101	1.62
735.852	-0.38
736.603	-0.38
737.354	-0.38
738.104	0.62
738.855	0.62
739.605	-1.38
740.356	0.62
741.106	-2.38
741.856	0.62
742.607	-0.38
743.357	1.62
744.107	0.62
744.857	-0.38
745.607	-0.38
746.357	0.62
747.106	-1.38
747.856	-1.38
748.606	0.62
749.355	-0.38
750.105	-1.38
750.854	-2.38
751.603	0.62
752.353	-0.38
753.102	1.62
753.851	-0.38
754.6	-1.38
755.349	0.62
756.098	0.62
756.847	-0.38
757.595	-0.38
758.344	-1.38
759.093	-1.38
759.841	-2.38
760.589	-2.38
761.338	0.62
762.086	-1.38
762.834	0.62
763.582	0.62
764.331	0.62
765.079	-1.38
765.826	-0.38
766.574	-0.38
767.322	-1.38
768.07	-0.38
768.817	0.62
769.565	-0.38
770.312	-0.38
771.06	-0.38
771.807	-0.38
772.554	-1.38
773.302	-0.38
774.049	-2.38
774.796	-1.38
775.543	-1.38
776.29	1.62
777.036	-0.38
777.783	-2.38
778.53	-0.38
779.276	-1.38
780.023	0.62
780.769	0.62
781.516	0.62
782.262	1.62
783.008	-0.38
783.754	-2.38
784.5	-2.38
785.246	0.62
785.992	-0.38
786.738	0.62
787.484	0.62
788.23	0.62
788.975	-1.38
789.721	-0.38
790.466	0.62
791.212	-1.38
791.957	-2.38
792.702	0.62
793.447	-1.38
794.193	0.62
794.938	-1.38
795.683	-0.38
796.427	-1.38
797.172	-0.38
797.917	-1.38
798.662	0.62
799.406	-2.38
800.151	-2.38
800.895	-0.38
801.64	-0.38
802.384	-0.38
803.128	0.62
803.872	-3.38
804.616	-0.38
805.36	-0.38
806.104	-0.38
806.848	-2.38
807.592	0.62
808.336	0.62
809.079	-0.38
809.823	0.62
810.566	-0.38
811.31	-0.38
812.053	-1.38
812.796	-2.38
813.539	0.62
814.283	-1.38
815.026	0.62
815.769	-1.38
816.511	1.62
817.254	-0.38
817.997	-0.38
818.74	-1.38
819.482	-3.38
820.225	-0.38
820.967	-2.38
821.71	0.62
822.452	-1.38
823.194	0.62
823.936	2.62
824.678	-2.38
825.42	-0.38
826.162	-1.38
826.904	-0.38
827.646	2.62
828.388	-0.38
829.129	0.62
829.871	0.62
830.612	-0.38
831.354	0.62
832.095	-0.38
832.836	0.62
833.577	-1.38
834.319	-1.38
835.06	-0.38
835.801	1.62
836.542	-0.38
837.282	-0.38
838.023	-0.38
838.764	0.62
839.504	0.62
840.245	1.62
840.985	-2.38
841.726	0.62
842.466	0.62
843.206	-0.38
843.946	-1.38
844.687	-0.38
845.427	-0.38
846.166	-2.38
846.906	-0.38
847.646	1.62
848.386	-0.38
849.125	-3.38
849.865	1.62
850.605	0.62
851.344	1.62
852.083	-1.38
852.823	-0.38
853.562	1.62
854.301	-0.38
855.04	-0.38
855.779	-1.38
856.518	-0.38
857.257	0.62
857.995	-0.38
858.734	0.62
859.473	1.62
860.211	0.62
860.95	-2.38
861.688	-0.38
862.426	0.62
863.165	-2.38
863.903	1.62
864.641	-2.38
865.379	-0.38
866.117	-0.38
866.855	-0.38
867.593	-0.38
868.33	-0.38
869.068	-2.38
869.806	-0.38
870.543	0.62
871.28	-0.38
872.018	-2.38
872.755	1.62
873.492	-0.38
874.229	0.62
874.967	-0.38
875.703	0.62
876.44	0.62
877.177	-1.38
877.914	-0.38
878.651	-1.38
879.387	-0.38
880.124	-0.38
880.86	-0.38
881.597	0.62
882.333	-1.38
883.069	-1.38
883.806	-2.38
884.542	1.62
885.278	0.62
886.014	-0.38
886.749	-0.38
887.485	-0.38
888.221	-1.38
888.957	-2.38
889.692	0.62
890.428	1.62
891.163	0.62
891.899	0.62
892.634	-0.38
893.369	-0.38
894.104	-0.38
894.839	1.62
895.574	0.62
896.309	0.62
897.044	0.62
897.779	0.62
898.514	-1.38
899.248	-2.38
899.983	-1.38
900.717	-0.38
901.452	-3.38
902.186	-0.38
902.92	0.62
903.654	-0.38
904.389	0.62
905.123	-0.38
905.857	-0.38
906.59	-0.38
907.324	1.62
908.058	-1.38
908.792	-0.38
909.525	0.62
910.259	1.62
910.992	-3.38
911.726	-0.38
912.459	1.62
913.192	-1.38
913.925	-1.38
914.658	0.62
915.391	-0.38
916.124	-2.38
916.857	-1.38
917.59	0.62
918.323	-1.38
919.055	-0.38
919.788	0.62
920.521	-1.38
921.253	-0.38
921.985	-0.38
922.718	-0.38
923.45	0.62
924.182	-1.38
924.914	-2.38
925.646	1.62
926.378	-1.38
927.11	-0.38
927.841	0.62
928.573	-0.38
929.305	-0.38
930.036	0.62
930.768	-2.38
931.499	1.62
932.23	-1.38
932.962	1.62
933.693	-2.38
934.424	-1.38
935.155	0.62
935.886	-0.38
936.617	-1.38
937.348	-1.38
938.078	-1.38
938.809	-1.38
939.54	-1.38
940.27	1.62
941.001	-1.38
941.731	-0.38
942.461	-1.38
943.191	1.62
943.922	-1.38
944.652	-0.38
945.382	1.62
946.112	-2.38
946.841	-2.38
947.571	1.62
948.301	-1.38
949.031	-1.38
949.76	0.62
950.49	-2.38
951.219	0.62
951.948	1.62
952.678	0.62
953.407	2.62
954.136	0.62
954.865	-0.38
955.594	-2.38
956.323	-2.38
957.052	-0.38
957.78	-1.38
958.509	1.62
959.238	-2.38
959.966	-1.38
960.695	1.62
961.423	-0.38
962.151	0.62
962.88	-1.38
963.608	-0.38
964.336	-1.38
965.064	-1.38
965.792	1.62
966.52	-0.38
967.247	0.62
967.975	0.62
968.703	-1.38
969.43	1.62
970.158	-0.38
970.885	-0.38
971.613	-1.38
972.34	0.62
973.067	-2.38
973.794	1.62
974.521	-1.38
975.248	-1.38
975.975	-0.38
976.702	-2.38
977.429	0.62
978.156	0.62
978.882	0.62
979.609	0.62
980.335	-0.38
981.062	-0.38
981.788	0.62
982.514	-0.38
983.24	-0.38
983.967	-1.38
984.693	-1.38
985.419	0.62
986.144	-1.38
986.87	-1.38
987.596	-0.38
988.322	0.62
989.047	-2.38
989.773	1.62
990.498	-3.38
991.224	-1.38
991.949	-0.38
992.674	2.62
993.399	-0.38
994.124	0.62
994.849	0.62
995.574	-2.38
996.299	1.62
997.024	-0.38
997.749	0.62
998.473	-2.38
999.198	-2.38
999.922	-0.38
1000.647	0.62
1001.371	2.62
1002.095	-2.38
1002.82	-0.38
1003.544	-2.38
1004.268	-1.38
1004.992	-5.38
1005.716	-2.38
1006.439	-2.38
1007.163	-1.38
1007.887	-2.38
1008.611	-0.38
1009.334	-0.38
1010.058	-0.38
1010.781	-2.38
1011.504	0.62
1012.228	-0.38
1012.951	1.62
1013.674	-0.38
1014.397	0.62
1015.12	0.62
