节点500_145_QEPB04081__234__11-32-43-469.txt的数据

Date: Wed Nov 12 11:32:43 CST 2025
User: PC
Spectrometer: QEPB0408
触发模式: 0
积分时间 (秒): 1.000000E-2
Scans to average: 1
启用暗噪声校正: true
启用非线性校正: false
滑动平均宽度: 0
X轴模式: Wavelengths
Number of Pixels in Spectrum: 1044
>>>>>Begin Spectral Data<<<<<
220.843	-1.62
221.644	-0.62
222.444	-0.62
223.244	0.38
224.045	-0.62
224.845	0.38
225.645	1.38
226.445	-1.62
227.245	-1.62
228.045	0.38
228.845	-1.62
229.645	0.38
230.444	-1.62
231.244	0.38
232.043	1.38
232.843	2.38
233.642	-1.62
234.442	-0.62
235.241	1.38
236.04	-0.62
236.839	2.38
237.638	-0.62
238.437	-0.62
239.236	1.38
240.035	2.38
240.833	-0.62
241.632	3.38
242.43	1.38
243.229	1.38
244.027	3.38
244.826	3.38
245.624	2.38
246.422	1.38
247.22	3.38
248.018	2.38
248.816	0.38
249.614	3.38
250.412	0.38
251.21	1.38
252.007	1.38
252.805	3.38
253.602	3.38
254.4	0.38
255.197	6.38
255.994	3.38
256.791	4.38
257.589	2.38
258.386	5.38
259.183	3.38
259.979	3.38
260.776	4.38
261.573	2.38
262.37	3.38
263.166	3.38
263.963	4.38
264.759	4.38
265.556	3.38
266.352	4.38
267.148	7.38
267.944	7.38
268.74	7.38
269.536	7.38
270.332	8.38
271.128	8.38
271.924	5.38
272.719	7.38
273.515	10.38
274.311	7.38
275.106	7.38
275.901	9.38
276.697	9.38
277.492	8.38
278.287	8.38
279.082	11.38
279.877	11.38
280.672	8.38
281.467	9.38
282.262	11.38
283.056	10.38
283.851	8.38
284.646	10.38
285.44	11.38
286.234	8.38
287.029	10.38
287.823	13.38
288.617	7.38
289.411	8.38
290.205	12.38
290.999	9.38
291.793	10.38
292.587	10.38
293.381	10.38
294.174	11.38
294.968	8.38
295.761	9.38
296.555	10.38
297.348	11.38
298.141	10.38
298.935	10.38
299.728	10.38
300.521	7.38
301.314	10.38
302.107	8.38
302.899	8.38
303.692	10.38
304.485	7.38
305.277	7.38
306.07	9.38
306.862	10.38
307.655	5.38
308.447	6.38
309.239	7.38
310.031	6.38
310.823	6.38
311.615	5.38
312.407	7.38
313.199	6.38
313.991	7.38
314.783	5.38
315.574	4.38
316.366	4.38
317.157	7.38
317.949	6.38
318.74	3.38
319.531	4.38
320.322	7.38
321.113	4.38
321.904	5.38
322.695	5.38
323.486	5.38
324.277	6.38
325.068	2.38
325.858	5.38
326.649	5.38
327.439	5.38
328.23	2.38
329.02	4.38
329.81	6.38
330.6	2.38
331.391	5.38
332.181	4.38
332.971	4.38
333.76	4.38
334.55	3.38
335.34	6.38
336.13	3.38
336.919	-0.62
337.709	1.38
338.498	3.38
339.287	4.38
340.077	4.38
340.866	5.38
341.655	2.38
342.444	3.38
343.233	2.38
344.022	4.38
344.811	4.38
345.6	5.38
346.388	4.38
347.177	4.38
347.965	3.38
348.754	2.38
349.542	2.38
350.33	2.38
351.119	2.38
351.907	5.38
352.695	3.38
353.483	2.38
354.271	1.38
355.059	5.38
355.846	3.38
356.634	2.38
357.422	3.38
358.209	2.38
358.997	2.38
359.784	3.38
360.571	2.38
361.359	3.38
362.146	3.38
362.933	1.38
363.72	5.38
364.507	3.38
365.294	-0.62
366.081	3.38
366.867	2.38
367.654	4.38
368.44	6.38
369.227	2.38
370.013	3.38
370.8	2.38
371.586	2.38
372.372	2.38
373.158	4.38
373.944	-0.62
374.73	2.38
375.516	2.38
376.302	1.38
377.088	1.38
377.873	0.38
378.659	1.38
379.445	4.38
380.23	2.38
381.015	4.38
381.801	2.38
382.586	0.38
383.371	2.38
384.156	1.38
384.941	3.38
385.726	3.38
386.511	2.38
387.296	2.38
388.08	3.38
388.865	3.38
389.649	1.38
390.434	2.38
391.218	2.38
392.003	2.38
392.787	1.38
393.571	2.38
394.355	2.38
395.139	2.38
395.923	4.38
396.707	2.38
397.491	4.38
398.274	2.38
399.058	2.38
399.842	4.38
400.625	3.38
401.408	4.38
402.192	2.38
402.975	6.38
403.758	5.38
404.541	5.38
405.324	3.38
406.107	3.38
406.89	4.38
407.673	5.38
408.456	3.38
409.238	3.38
410.021	2.38
410.803	5.38
411.586	3.38
412.368	6.38
413.151	5.38
413.933	5.38
414.715	4.38
415.497	3.38
416.279	4.38
417.061	4.38
417.843	8.38
418.624	5.38
419.406	5.38
420.188	4.38
420.969	4.38
421.751	6.38
422.532	3.38
423.313	4.38
424.095	6.38
424.876	5.38
425.657	6.38
426.438	4.38
427.219	7.38
428	7.38
428.78	7.38
429.561	7.38
430.342	6.38
431.122	8.38
431.903	8.38
432.683	6.38
433.464	7.38
434.244	10.38
435.024	7.38
435.804	6.38
436.584	10.38
437.364	9.38
438.144	8.38
438.924	11.38
439.704	11.38
440.483	9.38
441.263	13.38
442.042	10.38
442.822	13.38
443.601	12.38
444.38	13.38
445.16	13.38
445.939	14.38
446.718	16.38
447.497	16.38
448.276	15.38
449.054	20.38
449.833	21.38
450.612	22.38
451.391	23.38
452.169	23.38
452.948	27.38
453.726	32.38
454.504	34.38
455.282	38.38
456.061	42.38
456.839	43.38
457.617	51.38
458.395	54.38
459.172	58.38
459.95	66.38
460.728	80.38
461.506	84.38
462.283	94.38
463.061	106.38
463.838	117.38
464.615	131.38
465.393	141.38
466.17	160.38
466.947	185.38
467.724	205.38
468.501	215.38
469.278	246.38
470.055	281.38
470.831	314.38
471.608	343.38
472.385	384.38
473.161	425.38
473.938	474.38
474.714	521.38
475.49	580.38
476.266	643.38
477.043	731.38
477.819	800.38
478.595	881.38
479.371	985.38
480.146	1083.38
480.922	1202.38
481.698	1328.38
482.473	1473.38
483.249	1611.38
484.024	1799.38
484.8	1989.38
485.575	2175.38
486.35	2405.38
487.126	2661.38
487.901	2921.38
488.676	3222.38
489.451	3531.38
490.225	3925.38
491	4285.38
491.775	4721.38
492.55	5210.38
493.324	5708.38
494.099	6242.38
494.873	6807.38
495.647	7437.38
496.422	8094.38
497.196	8734.38
497.97	9407.38
498.744	10141.38
499.518	10906.38
500.292	11635.38
501.066	12325.38
501.839	12950.38
502.613	13605.38
503.387	14188.38
504.16	14701.38
504.934	15094.38
505.707	15404.38
506.48	15720.38
507.253	15843.38
508.027	15873.38
508.8	15788.38
509.573	15606.38
510.346	15335.38
511.118	15019.38
511.891	14613.38
512.664	14140.38
513.437	13638.38
514.209	13089.38
514.982	12520.38
515.754	12054.38
516.526	11520.38
517.298	10969.38
518.071	10489.38
518.843	10009.38
519.615	9598.38
520.387	9173.38
521.159	8793.38
521.93	8498.38
522.702	8147.38
523.474	7820.38
524.245	7513.38
525.017	7210.38
525.788	6934.38
526.56	6669.38
527.331	6373.38
528.102	6064.38
528.873	5810.38
529.644	5537.38
530.415	5313.38
531.186	5043.38
531.957	4778.38
532.728	4531.38
533.498	4279.38
534.269	4043.38
535.039	3830.38
535.81	3611.38
536.58	3428.38
537.351	3206.38
538.121	3034.38
538.891	2854.38
539.661	2722.38
540.431	2565.38
541.201	2442.38
541.971	2291.38
542.741	2184.38
543.51	2059.38
544.28	1960.38
545.05	1855.38
545.819	1785.38
546.588	1694.38
547.358	1600.38
548.127	1526.38
548.896	1450.38
549.665	1384.38
550.434	1309.38
551.203	1222.38
551.972	1168.38
552.741	1117.38
553.51	1052.38
554.278	993.38
555.047	933.38
555.815	878.38
556.584	833.38
557.352	782.38
558.121	739.38
558.889	700.38
559.657	658.38
560.425	619.38
561.193	581.38
561.961	547.38
562.729	518.38
563.496	484.38
564.264	460.38
565.032	430.38
565.799	417.38
566.567	393.38
567.334	367.38
568.101	342.38
568.869	328.38
569.636	311.38
570.403	296.38
571.17	272.38
571.937	258.38
572.704	244.38
573.471	235.38
574.237	219.38
575.004	207.38
575.771	192.38
576.537	181.38
577.303	173.38
578.07	166.38
578.836	152.38
579.602	145.38
580.368	134.38
581.134	122.38
581.9	122.38
582.666	113.38
583.432	110.38
584.198	106.38
584.964	97.38
585.729	87.38
586.495	87.38
587.26	80.38
588.025	74.38
588.791	73.38
589.556	68.38
590.321	66.38
591.086	62.38
591.851	60.38
592.616	56.38
593.381	52.38
594.146	49.38
594.911	46.38
595.675	45.38
596.44	45.38
597.204	41.38
597.969	39.38
598.733	38.38
599.497	37.38
600.261	35.38
601.025	34.38
601.79	29.38
602.553	28.38
603.317	28.38
604.081	26.38
604.845	28.38
605.609	23.38
606.372	22.38
607.136	25.38
607.899	21.38
608.662	21.38
609.426	19.38
610.189	21.38
610.952	19.38
611.715	17.38
612.478	20.38
613.241	16.38
614.004	16.38
614.767	12.38
615.529	14.38
616.292	14.38
617.055	13.38
617.817	14.38
618.579	9.38
619.342	14.38
620.104	11.38
620.866	9.38
621.628	10.38
622.39	9.38
623.152	11.38
623.914	9.38
624.676	8.38
625.438	8.38
626.199	10.38
626.961	6.38
627.722	6.38
628.484	7.38
629.245	6.38
630.006	6.38
630.768	5.38
631.529	7.38
632.29	7.38
633.051	7.38
633.812	7.38
634.573	7.38
635.333	5.38
636.094	5.38
636.855	6.38
637.615	6.38
638.376	6.38
639.136	9.38
639.896	5.38
640.657	5.38
641.417	6.38
642.177	5.38
642.937	5.38
643.697	3.38
644.457	2.38
645.216	4.38
645.976	4.38
646.736	4.38
647.495	6.38
648.255	3.38
649.014	5.38
649.774	5.38
650.533	3.38
651.292	5.38
652.051	5.38
652.81	2.38
653.569	5.38
654.328	3.38
655.087	4.38
655.846	3.38
656.604	5.38
657.363	3.38
658.121	1.38
658.88	3.38
659.638	5.38
660.397	3.38
661.155	3.38
661.913	3.38
662.671	4.38
663.429	1.38
664.187	2.38
664.945	3.38
665.703	2.38
666.46	2.38
667.218	0.38
667.976	2.38
668.733	2.38
669.49	3.38
670.248	2.38
671.005	4.38
671.762	1.38
672.519	1.38
673.276	2.38
674.033	1.38
674.79	2.38
675.547	2.38
676.304	2.38
677.06	1.38
677.817	2.38
678.574	2.38
679.33	4.38
680.086	3.38
680.843	2.38
681.599	3.38
682.355	1.38
683.111	2.38
683.867	1.38
684.623	1.38
685.379	2.38
686.135	3.38
686.89	1.38
687.646	4.38
688.402	1.38
689.157	5.38
689.912	-0.62
690.668	-2.62
691.423	3.38
692.178	2.38
692.933	2.38
693.688	1.38
694.443	1.38
695.198	2.38
695.953	2.38
696.708	0.38
697.462	2.38
698.217	1.38
698.972	1.38
699.726	2.38
700.48	1.38
701.235	0.38
701.989	1.38
702.743	1.38
703.497	1.38
704.251	2.38
705.005	3.38
705.759	1.38
706.513	2.38
707.266	5.38
708.02	3.38
708.774	3.38
709.527	1.38
710.28	2.38
711.034	1.38
711.787	1.38
712.54	0.38
713.293	2.38
714.046	0.38
714.799	4.38
715.552	2.38
716.305	1.38
717.058	2.38
717.81	0.38
718.563	2.38
719.315	1.38
720.068	3.38
720.82	1.38
721.573	1.38
722.325	2.38
723.077	0.38
723.829	2.38
724.581	3.38
725.333	-0.62
726.085	3.38
726.836	1.38
727.588	1.38
728.34	3.38
729.091	2.38
729.843	2.38
730.594	0.38
731.346	3.38
732.097	1.38
732.848	4.38
733.599	1.38
734.35	1.38
735.101	2.38
735.852	1.38
736.603	3.38
737.354	3.38
738.104	1.38
738.855	1.38
739.605	1.38
740.356	1.38
741.106	0.38
741.856	2.38
742.607	2.38
743.357	2.38
744.107	4.38
744.857	-1.62
745.607	2.38
746.357	2.38
747.106	2.38
747.856	2.38
748.606	2.38
749.355	1.38
750.105	1.38
750.854	2.38
751.603	2.38
752.353	1.38
753.102	1.38
753.851	2.38
754.6	1.38
755.349	4.38
756.098	6.38
756.847	1.38
757.595	3.38
758.344	2.38
759.093	3.38
759.841	1.38
760.589	2.38
761.338	2.38
762.086	1.38
762.834	4.38
763.582	2.38
764.331	4.38
765.079	4.38
765.826	4.38
766.574	5.38
767.322	4.38
768.07	4.38
768.817	3.38
769.565	2.38
770.312	2.38
771.06	3.38
771.807	3.38
772.554	3.38
773.302	6.38
774.049	6.38
774.796	3.38
775.543	2.38
776.29	6.38
777.036	5.38
777.783	3.38
778.53	5.38
779.276	3.38
780.023	2.38
780.769	4.38
781.516	5.38
782.262	3.38
783.008	6.38
783.754	4.38
784.5	6.38
785.246	6.38
785.992	6.38
786.738	4.38
787.484	5.38
788.23	5.38
788.975	7.38
789.721	5.38
790.466	3.38
791.212	3.38
791.957	6.38
792.702	7.38
793.447	4.38
794.193	3.38
794.938	4.38
795.683	4.38
796.427	4.38
797.172	5.38
797.917	4.38
798.662	5.38
799.406	3.38
800.151	4.38
800.895	2.38
801.64	5.38
802.384	2.38
803.128	5.38
803.872	3.38
804.616	4.38
805.36	3.38
806.104	4.38
806.848	4.38
807.592	3.38
808.336	5.38
809.079	6.38
809.823	4.38
810.566	3.38
811.31	3.38
812.053	3.38
812.796	3.38
813.539	4.38
814.283	0.38
815.026	3.38
815.769	3.38
816.511	2.38
817.254	5.38
817.997	1.38
818.74	2.38
819.482	1.38
820.225	2.38
820.967	4.38
821.71	3.38
822.452	4.38
823.194	0.38
823.936	3.38
824.678	2.38
825.42	2.38
826.162	1.38
826.904	2.38
827.646	3.38
828.388	5.38
829.129	4.38
829.871	2.38
830.612	2.38
831.354	1.38
832.095	3.38
832.836	3.38
833.577	4.38
834.319	2.38
835.06	1.38
835.801	2.38
836.542	3.38
837.282	3.38
838.023	4.38
838.764	2.38
839.504	3.38
840.245	1.38
840.985	1.38
841.726	2.38
842.466	1.38
843.206	2.38
843.946	2.38
844.687	4.38
845.427	3.38
846.166	3.38
846.906	2.38
847.646	1.38
848.386	2.38
849.125	2.38
849.865	1.38
850.605	2.38
851.344	2.38
852.083	2.38
852.823	-0.62
853.562	0.38
854.301	1.38
855.04	2.38
855.779	2.38
856.518	1.38
857.257	1.38
857.995	0.38
858.734	3.38
859.473	-0.62
860.211	0.38
860.95	0.38
861.688	0.38
862.426	0.38
863.165	-0.62
863.903	1.38
864.641	0.38
865.379	0.38
866.117	2.38
866.855	0.38
867.593	3.38
868.33	1.38
869.068	1.38
869.806	1.38
870.543	1.38
871.28	1.38
872.018	1.38
872.755	-0.62
873.492	1.38
874.229	0.38
874.967	0.38
875.703	-0.62
876.44	1.38
877.177	0.38
877.914	1.38
878.651	-1.62
879.387	1.38
880.124	-0.62
880.86	1.38
881.597	2.38
882.333	1.38
883.069	0.38
883.806	0.38
884.542	1.38
885.278	1.38
886.014	-0.62
886.749	2.38
887.485	-0.62
888.221	0.38
888.957	1.38
889.692	3.38
890.428	0.38
891.163	-1.62
891.899	2.38
892.634	-0.62
893.369	2.38
894.104	-1.62
894.839	2.38
895.574	0.38
896.309	0.38
897.044	0.38
897.779	1.38
898.514	-0.62
899.248	2.38
899.983	1.38
900.717	-1.62
901.452	0.38
902.186	0.38
902.92	-1.62
903.654	-0.62
904.389	0.38
905.123	1.38
905.857	1.38
906.59	-1.62
907.324	0.38
908.058	1.38
908.792	1.38
909.525	-1.62
910.259	-0.62
910.992	1.38
911.726	1.38
912.459	1.38
913.192	-1.62
913.925	-0.62
914.658	1.38
915.391	-0.62
916.124	-0.62
916.857	-0.62
917.59	1.38
918.323	-0.62
919.055	1.38
919.788	2.38
920.521	3.38
921.253	1.38
921.985	-1.62
922.718	-0.62
923.45	0.38
924.182	2.38
924.914	0.38
925.646	2.38
926.378	-1.62
927.11	-0.62
927.841	1.38
928.573	2.38
929.305	0.38
930.036	0.38
930.768	1.38
931.499	0.38
932.23	1.38
932.962	1.38
933.693	0.38
934.424	1.38
935.155	1.38
935.886	-2.62
936.617	-1.62
937.348	-0.62
938.078	0.38
938.809	-0.62
939.54	-0.62
940.27	2.38
941.001	-1.62
941.731	0.38
942.461	1.38
943.191	1.38
943.922	0.38
944.652	-0.62
945.382	-1.62
946.112	-0.62
946.841	-0.62
947.571	0.38
948.301	0.38
949.031	0.38
949.76	-2.62
950.49	0.38
951.219	-0.62
951.948	-0.62
952.678	-1.62
953.407	-0.62
954.136	1.38
954.865	-2.62
955.594	1.38
956.323	-0.62
957.052	1.38
957.78	0.38
958.509	-0.62
959.238	1.38
959.966	0.38
960.695	1.38
961.423	0.38
962.151	1.38
962.88	0.38
963.608	1.38
964.336	1.38
965.064	-1.62
965.792	-0.62
966.52	-1.62
967.247	0.38
967.975	1.38
968.703	1.38
969.43	-0.62
970.158	-1.62
970.885	0.38
971.613	-1.62
972.34	0.38
973.067	-1.62
973.794	1.38
974.521	1.38
975.248	-1.62
975.975	1.38
976.702	-0.62
977.429	2.38
978.156	1.38
978.882	-0.62
979.609	-0.62
980.335	-0.62
981.062	1.38
981.788	-0.62
982.514	1.38
983.24	0.38
983.967	0.38
984.693	-0.62
985.419	-1.62
986.144	-0.62
986.87	0.38
987.596	1.38
988.322	1.38
989.047	1.38
989.773	-0.62
990.498	0.38
991.224	0.38
991.949	-0.62
992.674	1.38
993.399	0.38
994.124	1.38
994.849	1.38
995.574	0.38
996.299	1.38
997.024	-0.62
997.749	1.38
998.473	-0.62
999.198	2.38
999.922	2.38
1000.647	0.38
1001.371	2.38
1002.095	0.38
1002.82	0.38
1003.544	0.38
1004.268	0.38
1004.992	-3.62
1005.716	-0.62
1006.439	-0.62
1007.163	1.38
1007.887	-1.62
1008.611	2.38
1009.334	-1.62
1010.058	-0.62
1010.781	2.38
1011.504	-0.62
1012.228	0.38
1012.951	-1.62
1013.674	-1.62
1014.397	-1.62
1015.12	1.38
