节点500_285_QEPB04081__323__15-00-55-725.txt的数据

Date: Wed Nov 12 15:00:55 CST 2025
User: PC
Spectrometer: QEPB0408
触发模式: 0
积分时间 (秒): 1.000000E-2
Scans to average: 1
启用暗噪声校正: true
启用非线性校正: false
滑动平均宽度: 0
X轴模式: Wavelengths
Number of Pixels in Spectrum: 1044
>>>>>Begin Spectral Data<<<<<
220.843	2.25
221.644	1.25
222.444	3.25
223.244	2.25
224.045	2.25
224.845	3.25
225.645	3.25
226.445	4.25
227.245	4.25
228.045	3.25
228.845	5.25
229.645	2.25
230.444	4.25
231.244	2.25
232.043	3.25
232.843	2.25
233.642	3.25
234.442	3.25
235.241	6.25
236.04	3.25
236.839	6.25
237.638	7.25
238.437	4.25
239.236	3.25
240.035	5.25
240.833	6.25
241.632	4.25
242.43	4.25
243.229	4.25
244.027	5.25
244.826	6.25
245.624	5.25
246.422	4.25
247.22	5.25
248.018	8.25
248.816	7.25
249.614	6.25
250.412	6.25
251.21	7.25
252.007	6.25
252.805	7.25
253.602	6.25
254.4	9.25
255.197	7.25
255.994	5.25
256.791	8.25
257.589	8.25
258.386	8.25
259.183	9.25
259.979	12.25
260.776	8.25
261.573	10.25
262.37	13.25
263.166	13.25
263.963	10.25
264.759	14.25
265.556	13.25
266.352	12.25
267.148	11.25
267.944	11.25
268.74	13.25
269.536	10.25
270.332	16.25
271.128	14.25
271.924	18.25
272.719	15.25
273.515	17.25
274.311	16.25
275.106	18.25
275.901	18.25
276.697	14.25
277.492	19.25
278.287	18.25
279.082	19.25
279.877	19.25
280.672	20.25
281.467	20.25
282.262	17.25
283.056	18.25
283.851	19.25
284.646	16.25
285.44	19.25
286.234	18.25
287.029	20.25
287.823	18.25
288.617	18.25
289.411	18.25
290.205	18.25
290.999	18.25
291.793	20.25
292.587	18.25
293.381	17.25
294.174	18.25
294.968	18.25
295.761	19.25
296.555	14.25
297.348	15.25
298.141	14.25
298.935	21.25
299.728	13.25
300.521	15.25
301.314	10.25
302.107	13.25
302.899	13.25
303.692	12.25
304.485	15.25
305.277	14.25
306.07	16.25
306.862	13.25
307.655	12.25
308.447	13.25
309.239	12.25
310.031	13.25
310.823	12.25
311.615	11.25
312.407	10.25
313.199	10.25
313.991	9.25
314.783	9.25
315.574	12.25
316.366	8.25
317.157	7.25
317.949	9.25
318.74	8.25
319.531	10.25
320.322	9.25
321.113	10.25
321.904	10.25
322.695	9.25
323.486	8.25
324.277	6.25
325.068	8.25
325.858	10.25
326.649	9.25
327.439	8.25
328.23	8.25
329.02	6.25
329.81	8.25
330.6	8.25
331.391	5.25
332.181	6.25
332.971	7.25
333.76	5.25
334.55	8.25
335.34	10.25
336.13	6.25
336.919	8.25
337.709	7.25
338.498	5.25
339.287	7.25
340.077	6.25
340.866	6.25
341.655	9.25
342.444	6.25
343.233	7.25
344.022	6.25
344.811	5.25
345.6	7.25
346.388	5.25
347.177	8.25
347.965	5.25
348.754	7.25
349.542	7.25
350.33	4.25
351.119	5.25
351.907	6.25
352.695	4.25
353.483	8.25
354.271	7.25
355.059	8.25
355.846	5.25
356.634	8.25
357.422	7.25
358.209	7.25
358.997	5.25
359.784	5.25
360.571	8.25
361.359	3.25
362.146	5.25
362.933	4.25
363.72	5.25
364.507	5.25
365.294	5.25
366.081	6.25
366.867	9.25
367.654	4.25
368.44	7.25
369.227	6.25
370.013	4.25
370.8	4.25
371.586	7.25
372.372	5.25
373.158	5.25
373.944	5.25
374.73	5.25
375.516	5.25
376.302	8.25
377.088	4.25
377.873	6.25
378.659	6.25
379.445	6.25
380.23	4.25
381.015	4.25
381.801	6.25
382.586	4.25
383.371	8.25
384.156	6.25
384.941	5.25
385.726	6.25
386.511	4.25
387.296	4.25
388.08	4.25
388.865	6.25
389.649	6.25
390.434	5.25
391.218	5.25
392.003	6.25
392.787	6.25
393.571	7.25
394.355	7.25
395.139	6.25
395.923	8.25
396.707	6.25
397.491	8.25
398.274	7.25
399.058	9.25
399.842	10.25
400.625	7.25
401.408	9.25
402.192	9.25
402.975	6.25
403.758	9.25
404.541	9.25
405.324	10.25
406.107	7.25
406.89	7.25
407.673	8.25
408.456	10.25
409.238	6.25
410.021	8.25
410.803	10.25
411.586	10.25
412.368	8.25
413.151	11.25
413.933	8.25
414.715	8.25
415.497	9.25
416.279	10.25
417.061	9.25
417.843	10.25
418.624	7.25
419.406	9.25
420.188	10.25
420.969	10.25
421.751	9.25
422.532	13.25
423.313	10.25
424.095	10.25
424.876	15.25
425.657	10.25
426.438	14.25
427.219	15.25
428	14.25
428.78	10.25
429.561	13.25
430.342	14.25
431.122	14.25
431.903	13.25
432.683	13.25
433.464	15.25
434.244	16.25
435.024	18.25
435.804	18.25
436.584	18.25
437.364	20.25
438.144	22.25
438.924	23.25
439.704	20.25
440.483	25.25
441.263	22.25
442.042	22.25
442.822	24.25
443.601	28.25
444.38	29.25
445.16	32.25
445.939	30.25
446.718	35.25
447.497	39.25
448.276	38.25
449.054	48.25
449.833	48.25
450.612	53.25
451.391	59.25
452.169	61.25
452.948	64.25
453.726	74.25
454.504	81.25
455.282	87.25
456.061	100.25
456.839	109.25
457.617	126.25
458.395	138.25
459.172	153.25
459.95	167.25
460.728	190.25
461.506	202.25
462.283	232.25
463.061	262.25
463.838	286.25
464.615	319.25
465.393	364.25
466.17	409.25
466.947	451.25
467.724	498.25
468.501	553.25
469.278	618.25
470.055	686.25
470.831	746.25
471.608	854.25
472.385	946.25
473.161	1040.25
473.938	1165.25
474.714	1288.25
475.49	1425.25
476.266	1570.25
477.043	1744.25
477.819	1934.25
478.595	2110.25
479.371	2355.25
480.146	2606.25
480.922	2867.25
481.698	3159.25
482.473	3468.25
483.249	3810.25
484.024	4186.25
484.8	4646.25
485.575	5077.25
486.35	5577.25
487.126	6128.25
487.901	6715.25
488.676	7380.25
489.451	8089.25
490.225	8903.25
491	9671.25
491.775	10591.25
492.55	11500.25
493.324	12462.25
494.099	13432.25
494.873	14474.25
495.647	15610.25
496.422	16786.25
497.196	17977.25
497.97	19205.25
498.744	20384.25
499.518	21598.25
500.292	22729.25
501.066	23787.25
501.839	24745.25
502.613	25571.25
503.387	26424.25
504.16	27110.25
504.934	27411.25
505.707	27570.25
506.48	27578.25
507.253	27486.25
508.027	27218.25
508.8	26905.25
509.573	26433.25
510.346	25851.25
511.118	25059.25
511.891	24249.25
512.664	23294.25
513.437	22490.25
514.209	21543.25
514.982	20695.25
515.754	19724.25
516.526	18874.25
517.298	18042.25
518.071	17209.25
518.843	16610.25
519.615	15943.25
520.387	15297.25
521.159	14746.25
521.93	14144.25
522.702	13649.25
523.474	13049.25
524.245	12441.25
525.017	11888.25
525.788	11473.25
526.56	10937.25
527.331	10439.25
528.102	9993.25
528.873	9490.25
529.644	8997.25
530.415	8575.25
531.186	8148.25
531.957	7707.25
532.728	7334.25
533.498	6950.25
534.269	6556.25
535.039	6189.25
535.81	5896.25
536.58	5507.25
537.351	5199.25
538.121	4913.25
538.891	4674.25
539.661	4400.25
540.431	4132.25
541.201	3924.25
541.971	3733.25
542.741	3537.25
543.51	3356.25
544.28	3203.25
545.05	3050.25
545.819	2879.25
546.588	2749.25
547.358	2589.25
548.127	2480.25
548.896	2363.25
549.665	2231.25
550.434	2110.25
551.203	2021.25
551.972	1885.25
552.741	1781.25
553.51	1686.25
554.278	1582.25
555.047	1506.25
555.815	1414.25
556.584	1337.25
557.352	1272.25
558.121	1189.25
558.889	1125.25
559.657	1070.25
560.425	1011.25
561.193	941.25
561.961	893.25
562.729	846.25
563.496	793.25
564.264	761.25
565.032	721.25
565.799	670.25
566.567	646.25
567.334	608.25
568.101	565.25
568.869	535.25
569.636	510.25
570.403	473.25
571.17	449.25
571.937	427.25
572.704	407.25
573.471	386.25
574.237	354.25
575.004	335.25
575.771	318.25
576.537	296.25
577.303	285.25
578.07	262.25
578.836	254.25
579.602	233.25
580.368	228.25
581.134	212.25
581.9	202.25
582.666	187.25
583.432	182.25
584.198	169.25
584.964	163.25
585.729	154.25
586.495	144.25
587.26	139.25
588.025	132.25
588.791	125.25
589.556	118.25
590.321	106.25
591.086	105.25
591.851	102.25
592.616	95.25
593.381	84.25
594.146	86.25
594.911	81.25
595.675	76.25
596.44	78.25
597.204	76.25
597.969	69.25
598.733	65.25
599.497	63.25
600.261	59.25
601.025	62.25
601.79	55.25
602.553	52.25
603.317	49.25
604.081	47.25
604.845	50.25
605.609	44.25
606.372	41.25
607.136	41.25
607.899	40.25
608.662	38.25
609.426	34.25
610.189	32.25
610.952	31.25
611.715	33.25
612.478	34.25
613.241	32.25
614.004	30.25
614.767	24.25
615.529	26.25
616.292	28.25
617.055	24.25
617.817	24.25
618.579	20.25
619.342	25.25
620.104	24.25
620.866	20.25
621.628	21.25
622.39	18.25
623.152	18.25
623.914	18.25
624.676	19.25
625.438	18.25
626.199	17.25
626.961	16.25
627.722	17.25
628.484	17.25
629.245	15.25
630.006	14.25
630.768	15.25
631.529	11.25
632.29	14.25
633.051	14.25
633.812	13.25
634.573	11.25
635.333	11.25
636.094	10.25
636.855	13.25
637.615	9.25
638.376	11.25
639.136	13.25
639.896	10.25
640.657	10.25
641.417	10.25
642.177	8.25
642.937	10.25
643.697	10.25
644.457	8.25
645.216	9.25
645.976	7.25
646.736	8.25
647.495	8.25
648.255	9.25
649.014	5.25
649.774	8.25
650.533	8.25
651.292	8.25
652.051	6.25
652.81	8.25
653.569	6.25
654.328	8.25
655.087	9.25
655.846	6.25
656.604	7.25
657.363	5.25
658.121	6.25
658.88	6.25
659.638	8.25
660.397	6.25
661.155	6.25
661.913	6.25
662.671	5.25
663.429	6.25
664.187	7.25
664.945	5.25
665.703	3.25
666.46	6.25
667.218	6.25
667.976	3.25
668.733	6.25
669.49	4.25
670.248	6.25
671.005	3.25
671.762	4.25
672.519	6.25
673.276	6.25
674.033	5.25
674.79	4.25
675.547	5.25
676.304	6.25
677.06	4.25
677.817	5.25
678.574	7.25
679.33	4.25
680.086	4.25
680.843	7.25
681.599	6.25
682.355	4.25
683.111	6.25
683.867	4.25
684.623	5.25
685.379	4.25
686.135	5.25
686.89	6.25
687.646	6.25
688.402	3.25
689.157	4.25
689.912	4.25
690.668	6.25
691.423	3.25
692.178	4.25
692.933	5.25
693.688	4.25
694.443	4.25
695.198	2.25
695.953	4.25
696.708	3.25
697.462	5.25
698.217	4.25
698.972	2.25
699.726	4.25
700.48	3.25
701.235	4.25
701.989	3.25
702.743	3.25
703.497	2.25
704.251	6.25
705.005	3.25
705.759	4.25
706.513	5.25
707.266	3.25
708.02	4.25
708.774	3.25
709.527	5.25
710.28	5.25
711.034	4.25
711.787	3.25
712.54	5.25
713.293	5.25
714.046	2.25
714.799	4.25
715.552	4.25
716.305	2.25
717.058	5.25
717.81	3.25
718.563	3.25
719.315	5.25
720.068	5.25
720.82	5.25
721.573	2.25
722.325	5.25
723.077	3.25
723.829	3.25
724.581	5.25
725.333	4.25
726.085	5.25
726.836	4.25
727.588	1.25
728.34	5.25
729.091	6.25
729.843	5.25
730.594	3.25
731.346	4.25
732.097	7.25
732.848	7.25
733.599	3.25
734.35	5.25
735.101	6.25
735.852	3.25
736.603	3.25
737.354	6.25
738.104	5.25
738.855	6.25
739.605	5.25
740.356	5.25
741.106	4.25
741.856	6.25
742.607	6.25
743.357	6.25
744.107	4.25
744.857	4.25
745.607	3.25
746.357	5.25
747.106	5.25
747.856	8.25
748.606	5.25
749.355	5.25
750.105	7.25
750.854	5.25
751.603	5.25
752.353	7.25
753.102	6.25
753.851	7.25
754.6	6.25
755.349	5.25
756.098	7.25
756.847	5.25
757.595	5.25
758.344	4.25
759.093	6.25
759.841	8.25
760.589	4.25
761.338	6.25
762.086	7.25
762.834	6.25
763.582	7.25
764.331	6.25
765.079	6.25
765.826	6.25
766.574	9.25
767.322	8.25
768.07	9.25
768.817	7.25
769.565	5.25
770.312	9.25
771.06	6.25
771.807	9.25
772.554	9.25
773.302	7.25
774.049	6.25
774.796	8.25
775.543	10.25
776.29	7.25
777.036	7.25
777.783	12.25
778.53	9.25
779.276	12.25
780.023	10.25
780.769	10.25
781.516	9.25
782.262	10.25
783.008	7.25
783.754	11.25
784.5	10.25
785.246	9.25
785.992	7.25
786.738	8.25
787.484	7.25
788.23	11.25
788.975	10.25
789.721	9.25
790.466	9.25
791.212	8.25
791.957	9.25
792.702	9.25
793.447	10.25
794.193	9.25
794.938	10.25
795.683	9.25
796.427	7.25
797.172	9.25
797.917	7.25
798.662	8.25
799.406	8.25
800.151	6.25
800.895	9.25
801.64	8.25
802.384	8.25
803.128	7.25
803.872	7.25
804.616	8.25
805.36	4.25
806.104	6.25
806.848	7.25
807.592	7.25
808.336	5.25
809.079	7.25
809.823	7.25
810.566	6.25
811.31	7.25
812.053	5.25
812.796	7.25
813.539	8.25
814.283	6.25
815.026	4.25
815.769	2.25
816.511	4.25
817.254	5.25
817.997	7.25
818.74	6.25
819.482	7.25
820.225	5.25
820.967	4.25
821.71	3.25
822.452	5.25
823.194	3.25
823.936	4.25
824.678	5.25
825.42	3.25
826.162	5.25
826.904	5.25
827.646	4.25
828.388	3.25
829.129	4.25
829.871	4.25
830.612	4.25
831.354	3.25
832.095	1.25
832.836	5.25
833.577	5.25
834.319	4.25
835.06	3.25
835.801	4.25
836.542	3.25
837.282	3.25
838.023	5.25
838.764	6.25
839.504	3.25
840.245	3.25
840.985	5.25
841.726	4.25
842.466	5.25
843.206	5.25
843.946	1.25
844.687	4.25
845.427	1.25
846.166	1.25
846.906	5.25
847.646	1.25
848.386	4.25
849.125	4.25
849.865	4.25
850.605	2.25
851.344	3.25
852.083	3.25
852.823	2.25
853.562	4.25
854.301	1.25
855.04	0.25
855.779	2.25
856.518	2.25
857.257	5.25
857.995	2.25
858.734	2.25
859.473	5.25
860.211	3.25
860.95	3.25
861.688	1.25
862.426	4.25
863.165	0.25
863.903	2.25
864.641	3.25
865.379	2.25
866.117	3.25
866.855	2.25
867.593	3.25
868.33	4.25
869.068	2.25
869.806	2.25
870.543	0.25
871.28	2.25
872.018	1.25
872.755	2.25
873.492	3.25
874.229	2.25
874.967	2.25
875.703	1.25
876.44	0.25
877.177	2.25
877.914	1.25
878.651	1.25
879.387	0.25
880.124	1.25
880.86	1.25
881.597	0.25
882.333	1.25
883.069	2.25
883.806	1.25
884.542	1.25
885.278	0.25
886.014	2.25
886.749	0.25
887.485	0.25
888.221	1.25
888.957	3.25
889.692	1.25
890.428	2.25
891.163	0.25
891.899	1.25
892.634	2.25
893.369	1.25
894.104	-1.75
894.839	1.25
895.574	2.25
896.309	3.25
897.044	2.25
897.779	0.25
898.514	0.25
899.248	3.25
899.983	0.25
900.717	0.25
901.452	2.25
902.186	1.25
902.92	-1.75
903.654	2.25
904.389	2.25
905.123	2.25
905.857	0.25
906.59	1.25
907.324	0.25
908.058	1.25
908.792	3.25
909.525	2.25
910.259	2.25
910.992	0.25
911.726	2.25
912.459	0.25
913.192	2.25
913.925	4.25
914.658	-0.75
915.391	3.25
916.124	-1.75
916.857	0.25
917.59	0.25
918.323	0.25
919.055	1.25
919.788	3.25
920.521	3.25
921.253	0.25
921.985	1.25
922.718	2.25
923.45	2.25
924.182	1.25
924.914	0.25
925.646	1.25
926.378	0.25
927.11	0.25
927.841	0.25
928.573	1.25
929.305	-1.75
930.036	0.25
930.768	1.25
931.499	2.25
932.23	0.25
932.962	-0.75
933.693	0.25
934.424	2.25
935.155	1.25
935.886	2.25
936.617	-0.75
937.348	2.25
938.078	-0.75
938.809	-1.75
939.54	1.25
940.27	1.25
941.001	2.25
941.731	1.25
942.461	1.25
943.191	-1.75
943.922	0.25
944.652	1.25
945.382	0.25
946.112	2.25
946.841	1.25
947.571	1.25
948.301	2.25
949.031	1.25
949.76	1.25
950.49	0.25
951.219	2.25
951.948	-0.75
952.678	1.25
953.407	0.25
954.136	-0.75
954.865	3.25
955.594	2.25
956.323	1.25
957.052	1.25
957.78	0.25
958.509	1.25
959.238	0.25
959.966	1.25
960.695	0.25
961.423	0.25
962.151	0.25
962.88	1.25
963.608	2.25
964.336	0.25
965.064	1.25
965.792	2.25
966.52	1.25
967.247	0.25
967.975	2.25
968.703	1.25
969.43	-0.75
970.158	0.25
970.885	0.25
971.613	0.25
972.34	3.25
973.067	1.25
973.794	0.25
974.521	-0.75
975.248	2.25
975.975	-0.75
976.702	1.25
977.429	-1.75
978.156	-0.75
978.882	0.25
979.609	0.25
980.335	0.25
981.062	0.25
981.788	-1.75
982.514	1.25
983.24	-1.75
983.967	2.25
984.693	1.25
985.419	1.25
986.144	0.25
986.87	-2.75
987.596	1.25
988.322	2.25
989.047	3.25
989.773	1.25
990.498	1.25
991.224	0.25
991.949	0.25
992.674	0.25
993.399	2.25
994.124	4.25
994.849	0.25
995.574	-1.75
996.299	2.25
997.024	1.25
997.749	3.25
998.473	2.25
999.198	1.25
999.922	1.25
1000.647	1.25
1001.371	3.25
1002.095	-1.75
1002.82	-1.75
1003.544	-2.75
1004.268	5.25
1004.992	4.25
1005.716	2.25
1006.439	0.25
1007.163	2.25
1007.887	0.25
1008.611	0.25
1009.334	0.25
1010.058	0.25
1010.781	1.25
1011.504	-0.75
1012.228	1.25
1012.951	0.25
1013.674	0.25
1014.397	3.25
1015.12	-0.75
