节点500_285_QEPB04081__573__15-05-05-190.txt的数据

Date: Wed Nov 12 15:05:05 CST 2025
User: PC
Spectrometer: QEPB0408
触发模式: 0
积分时间 (秒): 1.000000E-2
Scans to average: 1
启用暗噪声校正: true
启用非线性校正: false
滑动平均宽度: 0
X轴模式: Wavelengths
Number of Pixels in Spectrum: 1044
>>>>>Begin Spectral Data<<<<<
220.843	0.88
221.644	-0.12
222.444	3.88
223.244	1.88
224.045	2.88
224.845	0.88
225.645	1.88
226.445	0.88
227.245	2.88
228.045	1.88
228.845	2.88
229.645	4.88
230.444	1.88
231.244	0.88
232.043	0.88
232.843	1.88
233.642	2.88
234.442	2.88
235.241	0.88
236.04	1.88
236.839	2.88
237.638	3.88
238.437	1.88
239.236	0.88
240.035	4.88
240.833	4.88
241.632	5.88
242.43	2.88
243.229	4.88
244.027	3.88
244.826	4.88
245.624	1.88
246.422	6.88
247.22	2.88
248.018	4.88
248.816	5.88
249.614	1.88
250.412	5.88
251.21	5.88
252.007	5.88
252.805	6.88
253.602	6.88
254.4	8.88
255.197	6.88
255.994	4.88
256.791	8.88
257.589	9.88
258.386	7.88
259.183	6.88
259.979	8.88
260.776	9.88
261.573	9.88
262.37	8.88
263.166	10.88
263.963	10.88
264.759	10.88
265.556	12.88
266.352	13.88
267.148	9.88
267.944	11.88
268.74	11.88
269.536	11.88
270.332	13.88
271.128	13.88
271.924	14.88
272.719	15.88
273.515	13.88
274.311	13.88
275.106	17.88
275.901	19.88
276.697	15.88
277.492	19.88
278.287	14.88
279.082	14.88
279.877	15.88
280.672	18.88
281.467	14.88
282.262	14.88
283.056	17.88
283.851	18.88
284.646	19.88
285.44	17.88
286.234	16.88
287.029	16.88
287.823	16.88
288.617	19.88
289.411	17.88
290.205	17.88
290.999	15.88
291.793	17.88
292.587	17.88
293.381	15.88
294.174	17.88
294.968	16.88
295.761	13.88
296.555	16.88
297.348	13.88
298.141	16.88
298.935	13.88
299.728	17.88
300.521	15.88
301.314	14.88
302.107	15.88
302.899	10.88
303.692	13.88
304.485	11.88
305.277	14.88
306.07	11.88
306.862	9.88
307.655	13.88
308.447	11.88
309.239	10.88
310.031	9.88
310.823	9.88
311.615	10.88
312.407	9.88
313.199	9.88
313.991	8.88
314.783	9.88
315.574	6.88
316.366	8.88
317.157	7.88
317.949	8.88
318.74	9.88
319.531	8.88
320.322	8.88
321.113	6.88
321.904	7.88
322.695	7.88
323.486	9.88
324.277	7.88
325.068	5.88
325.858	9.88
326.649	5.88
327.439	4.88
328.23	6.88
329.02	5.88
329.81	5.88
330.6	8.88
331.391	6.88
332.181	5.88
332.971	6.88
333.76	4.88
334.55	3.88
335.34	6.88
336.13	4.88
336.919	7.88
337.709	7.88
338.498	5.88
339.287	7.88
340.077	6.88
340.866	5.88
341.655	6.88
342.444	6.88
343.233	7.88
344.022	5.88
344.811	4.88
345.6	6.88
346.388	5.88
347.177	6.88
347.965	5.88
348.754	6.88
349.542	5.88
350.33	6.88
351.119	3.88
351.907	6.88
352.695	4.88
353.483	4.88
354.271	7.88
355.059	4.88
355.846	5.88
356.634	3.88
357.422	3.88
358.209	5.88
358.997	3.88
359.784	4.88
360.571	6.88
361.359	4.88
362.146	6.88
362.933	5.88
363.72	4.88
364.507	4.88
365.294	3.88
366.081	4.88
366.867	3.88
367.654	5.88
368.44	6.88
369.227	6.88
370.013	6.88
370.8	3.88
371.586	4.88
372.372	5.88
373.158	5.88
373.944	4.88
374.73	5.88
375.516	4.88
376.302	3.88
377.088	5.88
377.873	5.88
378.659	5.88
379.445	5.88
380.23	6.88
381.015	3.88
381.801	5.88
382.586	4.88
383.371	5.88
384.156	4.88
384.941	6.88
385.726	6.88
386.511	5.88
387.296	3.88
388.08	6.88
388.865	5.88
389.649	5.88
390.434	2.88
391.218	4.88
392.003	5.88
392.787	9.88
393.571	6.88
394.355	3.88
395.139	7.88
395.923	3.88
396.707	7.88
397.491	5.88
398.274	3.88
399.058	8.88
399.842	3.88
400.625	7.88
401.408	6.88
402.192	6.88
402.975	6.88
403.758	4.88
404.541	8.88
405.324	7.88
406.107	7.88
406.89	7.88
407.673	7.88
408.456	7.88
409.238	6.88
410.021	8.88
410.803	6.88
411.586	9.88
412.368	8.88
413.151	3.88
413.933	8.88
414.715	7.88
415.497	9.88
416.279	6.88
417.061	9.88
417.843	6.88
418.624	9.88
419.406	9.88
420.188	11.88
420.969	9.88
421.751	7.88
422.532	10.88
423.313	12.88
424.095	8.88
424.876	10.88
425.657	11.88
426.438	10.88
427.219	11.88
428	10.88
428.78	12.88
429.561	11.88
430.342	12.88
431.122	11.88
431.903	16.88
432.683	13.88
433.464	16.88
434.244	15.88
435.024	17.88
435.804	15.88
436.584	13.88
437.364	16.88
438.144	22.88
438.924	20.88
439.704	22.88
440.483	19.88
441.263	24.88
442.042	24.88
442.822	28.88
443.601	25.88
444.38	28.88
445.16	31.88
445.939	32.88
446.718	35.88
447.497	35.88
448.276	41.88
449.054	47.88
449.833	49.88
450.612	55.88
451.391	58.88
452.169	66.88
452.948	67.88
453.726	78.88
454.504	84.88
455.282	97.88
456.061	105.88
456.839	116.88
457.617	133.88
458.395	145.88
459.172	161.88
459.95	177.88
460.728	200.88
461.506	223.88
462.283	243.88
463.061	266.88
463.838	302.88
464.615	342.88
465.393	378.88
466.17	417.88
466.947	470.88
467.724	526.88
468.501	591.88
469.278	651.88
470.055	709.88
470.831	787.88
471.608	873.88
472.385	975.88
473.161	1073.88
473.938	1191.88
474.714	1322.88
475.49	1451.88
476.266	1609.88
477.043	1783.88
477.819	1941.88
478.595	2122.88
479.371	2360.88
480.146	2566.88
480.922	2822.88
481.698	3116.88
482.473	3434.88
483.249	3757.88
484.024	4094.88
484.8	4530.88
485.575	4892.88
486.35	5371.88
487.126	5886.88
487.901	6431.88
488.676	7023.88
489.451	7665.88
490.225	8363.88
491	9120.88
491.775	9942.88
492.55	10775.88
493.324	11657.88
494.099	12574.88
494.873	13486.88
495.647	14536.88
496.422	15620.88
497.196	16654.88
497.97	17761.88
498.744	18935.88
499.518	20073.88
500.292	21172.88
501.066	22128.88
501.839	23106.88
502.613	24084.88
503.387	24867.88
504.16	25545.88
504.934	25924.88
505.707	26229.88
506.48	26421.88
507.253	26443.88
508.027	26330.88
508.8	26136.88
509.573	25734.88
510.346	25391.88
511.118	24749.88
511.891	24111.88
512.664	23339.88
513.437	22572.88
514.209	21631.88
514.982	20810.88
515.754	19978.88
516.526	19134.88
517.298	18285.88
518.071	17504.88
518.843	16892.88
519.615	16217.88
520.387	15560.88
521.159	14933.88
521.93	14357.88
522.702	13824.88
523.474	13234.88
524.245	12631.88
525.017	12120.88
525.788	11656.88
526.56	11120.88
527.331	10627.88
528.102	10173.88
528.873	9691.88
529.644	9241.88
530.415	8788.88
531.186	8357.88
531.957	7972.88
532.728	7588.88
533.498	7206.88
534.269	6787.88
535.039	6423.88
535.81	6099.88
536.58	5742.88
537.351	5380.88
538.121	5134.88
538.891	4847.88
539.661	4587.88
540.431	4331.88
541.201	4058.88
541.971	3881.88
542.741	3677.88
543.51	3521.88
544.28	3308.88
545.05	3169.88
545.819	3003.88
546.588	2846.88
547.358	2688.88
548.127	2597.88
548.896	2472.88
549.665	2321.88
550.434	2191.88
551.203	2085.88
551.972	1989.88
552.741	1869.88
553.51	1794.88
554.278	1676.88
555.047	1573.88
555.815	1485.88
556.584	1407.88
557.352	1327.88
558.121	1264.88
558.889	1192.88
559.657	1122.88
560.425	1069.88
561.193	999.88
561.961	944.88
562.729	896.88
563.496	848.88
564.264	798.88
565.032	746.88
565.799	705.88
566.567	669.88
567.334	638.88
568.101	604.88
568.869	563.88
569.636	527.88
570.403	497.88
571.17	474.88
571.937	449.88
572.704	421.88
573.471	401.88
574.237	369.88
575.004	358.88
575.771	335.88
576.537	304.88
577.303	290.88
578.07	278.88
578.836	262.88
579.602	251.88
580.368	238.88
581.134	223.88
581.9	209.88
582.666	201.88
583.432	192.88
584.198	181.88
584.964	166.88
585.729	167.88
586.495	149.88
587.26	139.88
588.025	136.88
588.791	129.88
589.556	122.88
590.321	115.88
591.086	108.88
591.851	104.88
592.616	98.88
593.381	91.88
594.146	87.88
594.911	82.88
595.675	82.88
596.44	78.88
597.204	75.88
597.969	73.88
598.733	68.88
599.497	63.88
600.261	63.88
601.025	59.88
601.79	54.88
602.553	52.88
603.317	53.88
604.081	45.88
604.845	49.88
605.609	43.88
606.372	42.88
607.136	40.88
607.899	39.88
608.662	38.88
609.426	34.88
610.189	35.88
610.952	33.88
611.715	35.88
612.478	32.88
613.241	27.88
614.004	28.88
614.767	27.88
615.529	27.88
616.292	25.88
617.055	26.88
617.817	25.88
618.579	20.88
619.342	22.88
620.104	22.88
620.866	19.88
621.628	20.88
622.39	16.88
623.152	19.88
623.914	18.88
624.676	19.88
625.438	19.88
626.199	16.88
626.961	16.88
627.722	13.88
628.484	13.88
629.245	17.88
630.006	13.88
630.768	13.88
631.529	14.88
632.29	10.88
633.051	8.88
633.812	13.88
634.573	9.88
635.333	13.88
636.094	11.88
636.855	12.88
637.615	10.88
638.376	9.88
639.136	8.88
639.896	9.88
640.657	9.88
641.417	9.88
642.177	8.88
642.937	9.88
643.697	8.88
644.457	8.88
645.216	6.88
645.976	7.88
646.736	7.88
647.495	5.88
648.255	7.88
649.014	6.88
649.774	6.88
650.533	7.88
651.292	7.88
652.051	6.88
652.81	6.88
653.569	6.88
654.328	6.88
655.087	6.88
655.846	4.88
656.604	7.88
657.363	6.88
658.121	3.88
658.88	4.88
659.638	4.88
660.397	4.88
661.155	2.88
661.913	5.88
662.671	4.88
663.429	3.88
664.187	6.88
664.945	2.88
665.703	5.88
666.46	5.88
667.218	5.88
667.976	3.88
668.733	2.88
669.49	4.88
670.248	5.88
671.005	2.88
671.762	4.88
672.519	4.88
673.276	4.88
674.033	0.88
674.79	5.88
675.547	1.88
676.304	4.88
677.06	3.88
677.817	3.88
678.574	4.88
679.33	4.88
680.086	4.88
680.843	1.88
681.599	4.88
682.355	4.88
683.111	3.88
683.867	1.88
684.623	4.88
685.379	4.88
686.135	3.88
686.89	5.88
687.646	4.88
688.402	3.88
689.157	2.88
689.912	4.88
690.668	5.88
691.423	3.88
692.178	1.88
692.933	2.88
693.688	3.88
694.443	3.88
695.198	2.88
695.953	0.88
696.708	2.88
697.462	3.88
698.217	3.88
698.972	4.88
699.726	3.88
700.48	2.88
701.235	3.88
701.989	1.88
702.743	2.88
703.497	3.88
704.251	2.88
705.005	4.88
705.759	5.88
706.513	3.88
707.266	3.88
708.02	3.88
708.774	2.88
709.527	1.88
710.28	2.88
711.034	1.88
711.787	3.88
712.54	4.88
713.293	3.88
714.046	3.88
714.799	1.88
715.552	4.88
716.305	4.88
717.058	1.88
717.81	5.88
718.563	4.88
719.315	2.88
720.068	4.88
720.82	3.88
721.573	3.88
722.325	0.88
723.077	4.88
723.829	1.88
724.581	4.88
725.333	3.88
726.085	3.88
726.836	4.88
727.588	2.88
728.34	3.88
729.091	0.88
729.843	3.88
730.594	3.88
731.346	4.88
732.097	5.88
732.848	5.88
733.599	4.88
734.35	3.88
735.101	4.88
735.852	3.88
736.603	1.88
737.354	2.88
738.104	3.88
738.855	7.88
739.605	5.88
740.356	4.88
741.106	4.88
741.856	3.88
742.607	4.88
743.357	3.88
744.107	5.88
744.857	6.88
745.607	4.88
746.357	3.88
747.106	3.88
747.856	2.88
748.606	5.88
749.355	4.88
750.105	4.88
750.854	3.88
751.603	5.88
752.353	1.88
753.102	5.88
753.851	8.88
754.6	5.88
755.349	4.88
756.098	3.88
756.847	4.88
757.595	4.88
758.344	5.88
759.093	6.88
759.841	5.88
760.589	5.88
761.338	5.88
762.086	6.88
762.834	6.88
763.582	8.88
764.331	4.88
765.079	6.88
765.826	5.88
766.574	2.88
767.322	6.88
768.07	3.88
768.817	6.88
769.565	4.88
770.312	5.88
771.06	5.88
771.807	6.88
772.554	8.88
773.302	7.88
774.049	5.88
774.796	4.88
775.543	5.88
776.29	6.88
777.036	6.88
777.783	6.88
778.53	8.88
779.276	5.88
780.023	6.88
780.769	7.88
781.516	6.88
782.262	8.88
783.008	7.88
783.754	8.88
784.5	9.88
785.246	11.88
785.992	9.88
786.738	9.88
787.484	6.88
788.23	8.88
788.975	8.88
789.721	8.88
790.466	8.88
791.212	7.88
791.957	7.88
792.702	7.88
793.447	8.88
794.193	9.88
794.938	6.88
795.683	6.88
796.427	9.88
797.172	5.88
797.917	5.88
798.662	8.88
799.406	6.88
800.151	5.88
800.895	6.88
801.64	5.88
802.384	5.88
803.128	5.88
803.872	5.88
804.616	6.88
805.36	7.88
806.104	8.88
806.848	6.88
807.592	6.88
808.336	6.88
809.079	5.88
809.823	6.88
810.566	4.88
811.31	6.88
812.053	5.88
812.796	3.88
813.539	3.88
814.283	4.88
815.026	4.88
815.769	3.88
816.511	2.88
817.254	2.88
817.997	3.88
818.74	4.88
819.482	5.88
820.225	3.88
820.967	4.88
821.71	3.88
822.452	4.88
823.194	6.88
823.936	3.88
824.678	2.88
825.42	2.88
826.162	3.88
826.904	3.88
827.646	3.88
828.388	1.88
829.129	5.88
829.871	3.88
830.612	0.88
831.354	4.88
832.095	4.88
832.836	1.88
833.577	4.88
834.319	2.88
835.06	1.88
835.801	3.88
836.542	2.88
837.282	0.88
838.023	5.88
838.764	5.88
839.504	1.88
840.245	2.88
840.985	2.88
841.726	4.88
842.466	1.88
843.206	4.88
843.946	1.88
844.687	0.88
845.427	3.88
846.166	2.88
846.906	4.88
847.646	1.88
848.386	3.88
849.125	3.88
849.865	2.88
850.605	1.88
851.344	2.88
852.083	5.88
852.823	3.88
853.562	3.88
854.301	0.88
855.04	2.88
855.779	1.88
856.518	2.88
857.257	3.88
857.995	1.88
858.734	1.88
859.473	3.88
860.211	0.88
860.95	1.88
861.688	0.88
862.426	2.88
863.165	-0.12
863.903	3.88
864.641	1.88
865.379	2.88
866.117	2.88
866.855	-1.12
867.593	1.88
868.33	-0.12
869.068	0.88
869.806	3.88
870.543	1.88
871.28	-1.12
872.018	0.88
872.755	0.88
873.492	0.88
874.229	0.88
874.967	4.88
875.703	-0.12
876.44	1.88
877.177	1.88
877.914	0.88
878.651	1.88
879.387	0.88
880.124	-0.12
880.86	-0.12
881.597	1.88
882.333	0.88
883.069	2.88
883.806	-0.12
884.542	-0.12
885.278	1.88
886.014	1.88
886.749	0.88
887.485	-0.12
888.221	-1.12
888.957	-2.12
889.692	2.88
890.428	1.88
891.163	1.88
891.899	1.88
892.634	0.88
893.369	-2.12
894.104	3.88
894.839	0.88
895.574	1.88
896.309	-0.12
897.044	0.88
897.779	-1.12
898.514	1.88
899.248	-0.12
899.983	0.88
900.717	0.88
901.452	0.88
902.186	-0.12
902.92	2.88
903.654	0.88
904.389	3.88
905.123	-0.12
905.857	-0.12
906.59	0.88
907.324	-0.12
908.058	-0.12
908.792	-0.12
909.525	1.88
910.259	0.88
910.992	0.88
911.726	1.88
912.459	-3.12
913.192	0.88
913.925	0.88
914.658	-1.12
915.391	0.88
916.124	1.88
916.857	-0.12
917.59	-2.12
918.323	1.88
919.055	-2.12
919.788	0.88
920.521	-0.12
921.253	0.88
921.985	1.88
922.718	0.88
923.45	1.88
924.182	-1.12
924.914	-0.12
925.646	-0.12
926.378	0.88
927.11	1.88
927.841	0.88
928.573	1.88
929.305	-1.12
930.036	-0.12
930.768	-0.12
931.499	0.88
932.23	1.88
932.962	-2.12
933.693	0.88
934.424	-1.12
935.155	-0.12
935.886	0.88
936.617	-0.12
937.348	-0.12
938.078	-1.12
938.809	-0.12
939.54	1.88
940.27	1.88
941.001	-0.12
941.731	-0.12
942.461	1.88
943.191	-0.12
943.922	0.88
944.652	0.88
945.382	1.88
946.112	-1.12
946.841	-0.12
947.571	0.88
948.301	3.88
949.031	-0.12
949.76	-1.12
950.49	0.88
951.219	0.88
951.948	-1.12
952.678	0.88
953.407	-0.12
954.136	0.88
954.865	-0.12
955.594	-2.12
956.323	-0.12
957.052	-0.12
957.78	-0.12
958.509	-0.12
959.238	-1.12
959.966	-0.12
960.695	-2.12
961.423	-0.12
962.151	-0.12
962.88	-0.12
963.608	-2.12
964.336	-1.12
965.064	-1.12
965.792	-0.12
966.52	-1.12
967.247	-0.12
967.975	0.88
968.703	0.88
969.43	-2.12
970.158	-0.12
970.885	-0.12
971.613	1.88
972.34	-1.12
973.067	1.88
973.794	0.88
974.521	-2.12
975.248	-0.12
975.975	0.88
976.702	0.88
977.429	-1.12
978.156	-0.12
978.882	-2.12
979.609	-2.12
980.335	0.88
981.062	-1.12
981.788	-0.12
982.514	-2.12
983.24	-2.12
983.967	-2.12
984.693	-1.12
985.419	-1.12
986.144	1.88
986.87	0.88
987.596	-1.12
988.322	0.88
989.047	-0.12
989.773	-1.12
990.498	0.88
991.224	0.88
991.949	-1.12
992.674	-0.12
993.399	-2.12
994.124	1.88
994.849	-0.12
995.574	1.88
996.299	2.88
997.024	-1.12
997.749	0.88
998.473	0.88
999.198	-0.12
999.922	-2.12
1000.647	-0.12
1001.371	2.88
1002.095	-2.12
1002.82	-0.12
1003.544	-2.12
1004.268	-0.12
1004.992	0.88
1005.716	-1.12
1006.439	0.88
1007.163	1.88
1007.887	0.88
1008.611	-1.12
1009.334	0.88
1010.058	-1.12
1010.781	1.88
1011.504	0.88
1012.228	0.88
1012.951	-0.12
1013.674	-0.12
1014.397	-0.12
1015.12	1.88
