节点500_285_QEPB04081__252__14-59-44-877.txt的数据

Date: Wed Nov 12 14:59:44 CST 2025
User: PC
Spectrometer: QEPB0408
触发模式: 0
积分时间 (秒): 1.000000E-2
Scans to average: 1
启用暗噪声校正: true
启用非线性校正: false
滑动平均宽度: 0
X轴模式: Wavelengths
Number of Pixels in Spectrum: 1044
>>>>>Begin Spectral Data<<<<<
220.843	2.12
221.644	4.12
222.444	0.12
223.244	2.12
224.045	2.12
224.845	0.12
225.645	2.12
226.445	2.12
227.245	4.12
228.045	3.12
228.845	4.12
229.645	1.12
230.444	3.12
231.244	4.12
232.043	2.12
232.843	4.12
233.642	5.12
234.442	5.12
235.241	3.12
236.04	2.12
236.839	4.12
237.638	6.12
238.437	5.12
239.236	0.12
240.035	3.12
240.833	6.12
241.632	6.12
242.43	6.12
243.229	6.12
244.027	3.12
244.826	5.12
245.624	7.12
246.422	6.12
247.22	6.12
248.018	5.12
248.816	5.12
249.614	4.12
250.412	8.12
251.21	7.12
252.007	8.12
252.805	7.12
253.602	6.12
254.4	7.12
255.197	8.12
255.994	8.12
256.791	9.12
257.589	9.12
258.386	8.12
259.183	8.12
259.979	10.12
260.776	9.12
261.573	11.12
262.37	12.12
263.166	12.12
263.963	14.12
264.759	13.12
265.556	12.12
266.352	12.12
267.148	11.12
267.944	15.12
268.74	15.12
269.536	15.12
270.332	13.12
271.128	18.12
271.924	16.12
272.719	16.12
273.515	18.12
274.311	14.12
275.106	18.12
275.901	19.12
276.697	18.12
277.492	19.12
278.287	22.12
279.082	18.12
279.877	18.12
280.672	19.12
281.467	20.12
282.262	22.12
283.056	16.12
283.851	20.12
284.646	20.12
285.44	19.12
286.234	24.12
287.029	18.12
287.823	20.12
288.617	19.12
289.411	19.12
290.205	21.12
290.999	17.12
291.793	17.12
292.587	21.12
293.381	18.12
294.174	17.12
294.968	20.12
295.761	14.12
296.555	17.12
297.348	14.12
298.141	17.12
298.935	15.12
299.728	15.12
300.521	16.12
301.314	17.12
302.107	13.12
302.899	15.12
303.692	14.12
304.485	13.12
305.277	14.12
306.07	11.12
306.862	13.12
307.655	11.12
308.447	13.12
309.239	13.12
310.031	9.12
310.823	11.12
311.615	11.12
312.407	11.12
313.199	9.12
313.991	10.12
314.783	9.12
315.574	10.12
316.366	7.12
317.157	8.12
317.949	9.12
318.74	8.12
319.531	7.12
320.322	10.12
321.113	9.12
321.904	9.12
322.695	8.12
323.486	7.12
324.277	8.12
325.068	8.12
325.858	8.12
326.649	10.12
327.439	7.12
328.23	8.12
329.02	7.12
329.81	8.12
330.6	7.12
331.391	10.12
332.181	10.12
332.971	9.12
333.76	8.12
334.55	4.12
335.34	7.12
336.13	8.12
336.919	4.12
337.709	8.12
338.498	6.12
339.287	8.12
340.077	5.12
340.866	9.12
341.655	7.12
342.444	7.12
343.233	7.12
344.022	6.12
344.811	6.12
345.6	4.12
346.388	8.12
347.177	5.12
347.965	7.12
348.754	9.12
349.542	4.12
350.33	7.12
351.119	5.12
351.907	6.12
352.695	5.12
353.483	5.12
354.271	8.12
355.059	5.12
355.846	7.12
356.634	6.12
357.422	5.12
358.209	4.12
358.997	5.12
359.784	7.12
360.571	6.12
361.359	5.12
362.146	6.12
362.933	6.12
363.72	4.12
364.507	4.12
365.294	6.12
366.081	5.12
366.867	5.12
367.654	4.12
368.44	6.12
369.227	9.12
370.013	5.12
370.8	6.12
371.586	5.12
372.372	5.12
373.158	5.12
373.944	4.12
374.73	5.12
375.516	4.12
376.302	7.12
377.088	8.12
377.873	4.12
378.659	8.12
379.445	4.12
380.23	7.12
381.015	5.12
381.801	7.12
382.586	5.12
383.371	7.12
384.156	8.12
384.941	5.12
385.726	6.12
386.511	6.12
387.296	4.12
388.08	6.12
388.865	6.12
389.649	7.12
390.434	6.12
391.218	8.12
392.003	8.12
392.787	6.12
393.571	6.12
394.355	7.12
395.139	7.12
395.923	6.12
396.707	7.12
397.491	6.12
398.274	6.12
399.058	8.12
399.842	8.12
400.625	8.12
401.408	8.12
402.192	6.12
402.975	8.12
403.758	7.12
404.541	10.12
405.324	8.12
406.107	9.12
406.89	6.12
407.673	9.12
408.456	7.12
409.238	8.12
410.021	8.12
410.803	9.12
411.586	10.12
412.368	11.12
413.151	7.12
413.933	10.12
414.715	7.12
415.497	9.12
416.279	10.12
417.061	8.12
417.843	11.12
418.624	12.12
419.406	9.12
420.188	11.12
420.969	11.12
421.751	10.12
422.532	12.12
423.313	10.12
424.095	12.12
424.876	15.12
425.657	12.12
426.438	12.12
427.219	15.12
428	12.12
428.78	13.12
429.561	15.12
430.342	14.12
431.122	12.12
431.903	14.12
432.683	14.12
433.464	16.12
434.244	18.12
435.024	17.12
435.804	16.12
436.584	20.12
437.364	21.12
438.144	20.12
438.924	21.12
439.704	23.12
440.483	22.12
441.263	25.12
442.042	24.12
442.822	23.12
443.601	30.12
444.38	30.12
445.16	33.12
445.939	34.12
446.718	35.12
447.497	40.12
448.276	42.12
449.054	46.12
449.833	50.12
450.612	50.12
451.391	56.12
452.169	64.12
452.948	69.12
453.726	73.12
454.504	79.12
455.282	86.12
456.061	94.12
456.839	110.12
457.617	117.12
458.395	136.12
459.172	148.12
459.95	167.12
460.728	188.12
461.506	200.12
462.283	220.12
463.061	256.12
463.838	282.12
464.615	315.12
465.393	350.12
466.17	400.12
466.947	442.12
467.724	490.12
468.501	549.12
469.278	605.12
470.055	676.12
470.831	753.12
471.608	833.12
472.385	936.12
473.161	1049.12
473.938	1151.12
474.714	1272.12
475.49	1431.12
476.266	1577.12
477.043	1747.12
477.819	1921.12
478.595	2134.12
479.371	2367.12
480.146	2610.12
480.922	2876.12
481.698	3183.12
482.473	3475.12
483.249	3850.12
484.024	4236.12
484.8	4653.12
485.575	5144.12
486.35	5670.12
487.126	6206.12
487.901	6856.12
488.676	7456.12
489.451	8188.12
490.225	8986.12
491	9831.12
491.775	10762.12
492.55	11730.12
493.324	12695.12
494.099	13664.12
494.873	14769.12
495.647	15916.12
496.422	17098.12
497.196	18275.12
497.97	19535.12
498.744	20752.12
499.518	21906.12
500.292	23075.12
501.066	24187.12
501.839	25133.12
502.613	25970.12
503.387	26800.12
504.16	27400.12
504.934	27710.12
505.707	27822.12
506.48	27825.12
507.253	27717.12
508.027	27389.12
508.8	26978.12
509.573	26578.12
510.346	25923.12
511.118	25060.12
511.891	24246.12
512.664	23387.12
513.437	22539.12
514.209	21514.12
514.982	20597.12
515.754	19701.12
516.526	18852.12
517.298	17943.12
518.071	17210.12
518.843	16506.12
519.615	15915.12
520.387	15270.12
521.159	14663.12
521.93	14070.12
522.702	13477.12
523.474	12942.12
524.245	12385.12
525.017	11912.12
525.788	11400.12
526.56	10881.12
527.331	10352.12
528.102	9903.12
528.873	9422.12
529.644	8965.12
530.415	8509.12
531.186	8076.12
531.957	7648.12
532.728	7279.12
533.498	6889.12
534.269	6486.12
535.039	6129.12
535.81	5828.12
536.58	5484.12
537.351	5150.12
538.121	4864.12
538.891	4609.12
539.661	4382.12
540.431	4111.12
541.201	3853.12
541.971	3689.12
542.741	3482.12
543.51	3325.12
544.28	3167.12
545.05	2997.12
545.819	2860.12
546.588	2709.12
547.358	2560.12
548.127	2452.12
548.896	2315.12
549.665	2221.12
550.434	2090.12
551.203	1970.12
551.972	1868.12
552.741	1765.12
553.51	1667.12
554.278	1582.12
555.047	1461.12
555.815	1411.12
556.584	1320.12
557.352	1252.12
558.121	1172.12
558.889	1117.12
559.657	1038.12
560.425	998.12
561.193	936.12
561.961	880.12
562.729	841.12
563.496	788.12
564.264	747.12
565.032	703.12
565.799	682.12
566.567	630.12
567.334	594.12
568.101	570.12
568.869	532.12
569.636	496.12
570.403	472.12
571.17	446.12
571.937	420.12
572.704	399.12
573.471	377.12
574.237	358.12
575.004	336.12
575.771	306.12
576.537	293.12
577.303	277.12
578.07	266.12
578.836	247.12
579.602	229.12
580.368	221.12
581.134	207.12
581.9	194.12
582.666	187.12
583.432	172.12
584.198	169.12
584.964	164.12
585.729	153.12
586.495	143.12
587.26	140.12
588.025	132.12
588.791	117.12
589.556	119.12
590.321	118.12
591.086	100.12
591.851	101.12
592.616	92.12
593.381	90.12
594.146	85.12
594.911	80.12
595.675	80.12
596.44	72.12
597.204	69.12
597.969	63.12
598.733	66.12
599.497	66.12
600.261	58.12
601.025	58.12
601.79	54.12
602.553	54.12
603.317	50.12
604.081	47.12
604.845	45.12
605.609	42.12
606.372	41.12
607.136	41.12
607.899	39.12
608.662	34.12
609.426	34.12
610.189	35.12
610.952	32.12
611.715	32.12
612.478	31.12
613.241	31.12
614.004	27.12
614.767	28.12
615.529	26.12
616.292	23.12
617.055	25.12
617.817	22.12
618.579	24.12
619.342	23.12
620.104	20.12
620.866	18.12
621.628	20.12
622.39	19.12
623.152	19.12
623.914	19.12
624.676	21.12
625.438	17.12
626.199	15.12
626.961	14.12
627.722	16.12
628.484	12.12
629.245	16.12
630.006	17.12
630.768	12.12
631.529	11.12
632.29	12.12
633.051	11.12
633.812	12.12
634.573	14.12
635.333	12.12
636.094	12.12
636.855	12.12
637.615	11.12
638.376	9.12
639.136	10.12
639.896	9.12
640.657	13.12
641.417	9.12
642.177	10.12
642.937	7.12
643.697	8.12
644.457	11.12
645.216	9.12
645.976	10.12
646.736	9.12
647.495	10.12
648.255	8.12
649.014	9.12
649.774	9.12
650.533	6.12
651.292	9.12
652.051	7.12
652.81	6.12
653.569	8.12
654.328	6.12
655.087	9.12
655.846	8.12
656.604	8.12
657.363	7.12
658.121	10.12
658.88	5.12
659.638	6.12
660.397	7.12
661.155	4.12
661.913	4.12
662.671	5.12
663.429	6.12
664.187	6.12
664.945	5.12
665.703	7.12
666.46	4.12
667.218	6.12
667.976	5.12
668.733	5.12
669.49	8.12
670.248	7.12
671.005	4.12
671.762	6.12
672.519	3.12
673.276	7.12
674.033	5.12
674.79	6.12
675.547	5.12
676.304	5.12
677.06	7.12
677.817	3.12
678.574	5.12
679.33	5.12
680.086	5.12
680.843	5.12
681.599	3.12
682.355	4.12
683.111	4.12
683.867	4.12
684.623	4.12
685.379	5.12
686.135	4.12
686.89	3.12
687.646	5.12
688.402	3.12
689.157	5.12
689.912	3.12
690.668	3.12
691.423	4.12
692.178	3.12
692.933	4.12
693.688	7.12
694.443	6.12
695.198	3.12
695.953	5.12
696.708	7.12
697.462	3.12
698.217	5.12
698.972	5.12
699.726	2.12
700.48	6.12
701.235	4.12
701.989	4.12
702.743	4.12
703.497	4.12
704.251	2.12
705.005	4.12
705.759	6.12
706.513	5.12
707.266	6.12
708.02	2.12
708.774	5.12
709.527	4.12
710.28	3.12
711.034	4.12
711.787	4.12
712.54	5.12
713.293	6.12
714.046	1.12
714.799	5.12
715.552	4.12
716.305	5.12
717.058	3.12
717.81	3.12
718.563	5.12
719.315	4.12
720.068	5.12
720.82	3.12
721.573	4.12
722.325	6.12
723.077	3.12
723.829	4.12
724.581	4.12
725.333	5.12
726.085	3.12
726.836	6.12
727.588	4.12
728.34	3.12
729.091	8.12
729.843	2.12
730.594	4.12
731.346	5.12
732.097	4.12
732.848	5.12
733.599	2.12
734.35	5.12
735.101	5.12
735.852	5.12
736.603	4.12
737.354	5.12
738.104	4.12
738.855	5.12
739.605	5.12
740.356	4.12
741.106	1.12
741.856	6.12
742.607	5.12
743.357	5.12
744.107	5.12
744.857	4.12
745.607	5.12
746.357	4.12
747.106	7.12
747.856	4.12
748.606	6.12
749.355	8.12
750.105	6.12
750.854	6.12
751.603	7.12
752.353	8.12
753.102	6.12
753.851	7.12
754.6	6.12
755.349	6.12
756.098	8.12
756.847	5.12
757.595	6.12
758.344	6.12
759.093	6.12
759.841	7.12
760.589	6.12
761.338	9.12
762.086	8.12
762.834	9.12
763.582	8.12
764.331	7.12
765.079	7.12
765.826	7.12
766.574	7.12
767.322	10.12
768.07	8.12
768.817	7.12
769.565	7.12
770.312	9.12
771.06	9.12
771.807	8.12
772.554	10.12
773.302	8.12
774.049	8.12
774.796	9.12
775.543	9.12
776.29	9.12
777.036	7.12
777.783	12.12
778.53	9.12
779.276	11.12
780.023	9.12
780.769	8.12
781.516	6.12
782.262	9.12
783.008	12.12
783.754	10.12
784.5	8.12
785.246	8.12
785.992	7.12
786.738	10.12
787.484	10.12
788.23	8.12
788.975	11.12
789.721	9.12
790.466	10.12
791.212	10.12
791.957	8.12
792.702	10.12
793.447	9.12
794.193	7.12
794.938	9.12
795.683	9.12
796.427	6.12
797.172	9.12
797.917	8.12
798.662	8.12
799.406	7.12
800.151	6.12
800.895	10.12
801.64	6.12
802.384	10.12
803.128	6.12
803.872	7.12
804.616	7.12
805.36	9.12
806.104	10.12
806.848	8.12
807.592	6.12
808.336	8.12
809.079	4.12
809.823	6.12
810.566	4.12
811.31	7.12
812.053	4.12
812.796	7.12
813.539	6.12
814.283	6.12
815.026	8.12
815.769	3.12
816.511	6.12
817.254	4.12
817.997	5.12
818.74	4.12
819.482	6.12
820.225	7.12
820.967	4.12
821.71	8.12
822.452	7.12
823.194	6.12
823.936	5.12
824.678	3.12
825.42	6.12
826.162	5.12
826.904	3.12
827.646	3.12
828.388	3.12
829.129	9.12
829.871	1.12
830.612	2.12
831.354	3.12
832.095	4.12
832.836	4.12
833.577	3.12
834.319	4.12
835.06	3.12
835.801	4.12
836.542	5.12
837.282	3.12
838.023	6.12
838.764	4.12
839.504	4.12
840.245	5.12
840.985	5.12
841.726	4.12
842.466	6.12
843.206	3.12
843.946	2.12
844.687	5.12
845.427	2.12
846.166	5.12
846.906	5.12
847.646	2.12
848.386	4.12
849.125	4.12
849.865	4.12
850.605	1.12
851.344	4.12
852.083	4.12
852.823	4.12
853.562	3.12
854.301	1.12
855.04	4.12
855.779	3.12
856.518	1.12
857.257	5.12
857.995	3.12
858.734	4.12
859.473	2.12
860.211	4.12
860.95	3.12
861.688	2.12
862.426	2.12
863.165	4.12
863.903	3.12
864.641	3.12
865.379	2.12
866.117	4.12
866.855	3.12
867.593	3.12
868.33	2.12
869.068	2.12
869.806	2.12
870.543	0.12
871.28	4.12
872.018	2.12
872.755	2.12
873.492	3.12
874.229	2.12
874.967	3.12
875.703	-0.88
876.44	2.12
877.177	1.12
877.914	2.12
878.651	1.12
879.387	1.12
880.124	1.12
880.86	1.12
881.597	2.12
882.333	1.12
883.069	1.12
883.806	1.12
884.542	1.12
885.278	2.12
886.014	3.12
886.749	1.12
887.485	2.12
888.221	2.12
888.957	2.12
889.692	0.12
890.428	3.12
891.163	1.12
891.899	0.12
892.634	1.12
893.369	0.12
894.104	3.12
894.839	0.12
895.574	2.12
896.309	2.12
897.044	0.12
897.779	1.12
898.514	0.12
899.248	0.12
899.983	2.12
900.717	-0.88
901.452	2.12
902.186	0.12
902.92	2.12
903.654	-0.88
904.389	0.12
905.123	1.12
905.857	1.12
906.59	0.12
907.324	-0.88
908.058	1.12
908.792	0.12
909.525	2.12
910.259	1.12
910.992	-1.88
911.726	2.12
912.459	2.12
913.192	3.12
913.925	1.12
914.658	2.12
915.391	-0.88
916.124	0.12
916.857	1.12
917.59	-0.88
918.323	3.12
919.055	0.12
919.788	1.12
920.521	2.12
921.253	0.12
921.985	4.12
922.718	1.12
923.45	2.12
924.182	0.12
924.914	1.12
925.646	2.12
926.378	0.12
927.11	2.12
927.841	1.12
928.573	-1.88
929.305	2.12
930.036	-1.88
930.768	3.12
931.499	0.12
932.23	1.12
932.962	1.12
933.693	0.12
934.424	1.12
935.155	-1.88
935.886	1.12
936.617	1.12
937.348	0.12
938.078	0.12
938.809	-1.88
939.54	-0.88
940.27	-0.88
941.001	2.12
941.731	1.12
942.461	1.12
943.191	0.12
943.922	-0.88
944.652	1.12
945.382	-0.88
946.112	3.12
946.841	0.12
947.571	0.12
948.301	1.12
949.031	-0.88
949.76	1.12
950.49	1.12
951.219	1.12
951.948	1.12
952.678	1.12
953.407	2.12
954.136	0.12
954.865	2.12
955.594	0.12
956.323	1.12
957.052	2.12
957.78	1.12
958.509	2.12
959.238	-0.88
959.966	0.12
960.695	0.12
961.423	0.12
962.151	1.12
962.88	2.12
963.608	2.12
964.336	1.12
965.064	0.12
965.792	4.12
966.52	1.12
967.247	-0.88
967.975	0.12
968.703	1.12
969.43	1.12
970.158	1.12
970.885	1.12
971.613	-1.88
972.34	1.12
973.067	1.12
973.794	1.12
974.521	1.12
975.248	1.12
975.975	0.12
976.702	0.12
977.429	0.12
978.156	-0.88
978.882	0.12
979.609	-0.88
980.335	0.12
981.062	1.12
981.788	2.12
982.514	1.12
983.24	1.12
983.967	1.12
984.693	-0.88
985.419	1.12
986.144	2.12
986.87	1.12
987.596	1.12
988.322	2.12
989.047	-0.88
989.773	0.12
990.498	1.12
991.224	4.12
991.949	1.12
992.674	0.12
993.399	1.12
994.124	0.12
994.849	0.12
995.574	0.12
996.299	1.12
997.024	0.12
997.749	2.12
998.473	1.12
999.198	-0.88
999.922	-0.88
1000.647	1.12
1001.371	2.12
1002.095	-1.88
1002.82	2.12
1003.544	-1.88
1004.268	2.12
1004.992	-0.88
1005.716	2.12
1006.439	1.12
1007.163	0.12
1007.887	2.12
1008.611	0.12
1009.334	1.12
1010.058	0.12
1010.781	-0.88
1011.504	2.12
1012.228	3.12
1012.951	1.12
1013.674	0.12
1014.397	0.12
1015.12	-1.88
