节点500_285_QEPB04081__620__15-05-52-085.txt的数据

Date: Wed Nov 12 15:05:52 CST 2025
User: PC
Spectrometer: QEPB0408
触发模式: 0
积分时间 (秒): 1.000000E-2
Scans to average: 1
启用暗噪声校正: true
启用非线性校正: false
滑动平均宽度: 0
X轴模式: Wavelengths
Number of Pixels in Spectrum: 1044
>>>>>Begin Spectral Data<<<<<
220.843	1.38
221.644	0.38
222.444	1.38
223.244	1.38
224.045	2.38
224.845	2.38
225.645	0.38
226.445	3.38
227.245	3.38
228.045	2.38
228.845	3.38
229.645	4.38
230.444	3.38
231.244	5.38
232.043	3.38
232.843	2.38
233.642	4.38
234.442	2.38
235.241	1.38
236.04	2.38
236.839	4.38
237.638	5.38
238.437	3.38
239.236	4.38
240.035	5.38
240.833	5.38
241.632	4.38
242.43	5.38
243.229	5.38
244.027	2.38
244.826	4.38
245.624	3.38
246.422	7.38
247.22	8.38
248.018	7.38
248.816	5.38
249.614	4.38
250.412	6.38
251.21	9.38
252.007	7.38
252.805	7.38
253.602	6.38
254.4	10.38
255.197	7.38
255.994	6.38
256.791	8.38
257.589	7.38
258.386	8.38
259.183	8.38
259.979	10.38
260.776	8.38
261.573	10.38
262.37	10.38
263.166	11.38
263.963	13.38
264.759	12.38
265.556	11.38
266.352	10.38
267.148	10.38
267.944	13.38
268.74	12.38
269.536	14.38
270.332	14.38
271.128	15.38
271.924	13.38
272.719	13.38
273.515	15.38
274.311	15.38
275.106	13.38
275.901	16.38
276.697	14.38
277.492	16.38
278.287	17.38
279.082	18.38
279.877	17.38
280.672	19.38
281.467	16.38
282.262	20.38
283.056	19.38
283.851	18.38
284.646	20.38
285.44	17.38
286.234	18.38
287.029	19.38
287.823	17.38
288.617	20.38
289.411	14.38
290.205	17.38
290.999	19.38
291.793	17.38
292.587	16.38
293.381	18.38
294.174	15.38
294.968	15.38
295.761	16.38
296.555	14.38
297.348	14.38
298.141	14.38
298.935	16.38
299.728	15.38
300.521	13.38
301.314	13.38
302.107	15.38
302.899	12.38
303.692	14.38
304.485	12.38
305.277	14.38
306.07	13.38
306.862	12.38
307.655	12.38
308.447	13.38
309.239	10.38
310.031	11.38
310.823	11.38
311.615	9.38
312.407	10.38
313.199	11.38
313.991	8.38
314.783	8.38
315.574	11.38
316.366	9.38
317.157	9.38
317.949	8.38
318.74	9.38
319.531	10.38
320.322	10.38
321.113	7.38
321.904	6.38
322.695	7.38
323.486	4.38
324.277	10.38
325.068	8.38
325.858	6.38
326.649	6.38
327.439	6.38
328.23	9.38
329.02	8.38
329.81	5.38
330.6	6.38
331.391	5.38
332.181	8.38
332.971	4.38
333.76	5.38
334.55	6.38
335.34	9.38
336.13	6.38
336.919	7.38
337.709	6.38
338.498	6.38
339.287	5.38
340.077	5.38
340.866	6.38
341.655	8.38
342.444	5.38
343.233	7.38
344.022	4.38
344.811	6.38
345.6	4.38
346.388	6.38
347.177	6.38
347.965	5.38
348.754	6.38
349.542	6.38
350.33	6.38
351.119	4.38
351.907	5.38
352.695	7.38
353.483	5.38
354.271	6.38
355.059	7.38
355.846	6.38
356.634	5.38
357.422	7.38
358.209	5.38
358.997	4.38
359.784	4.38
360.571	5.38
361.359	7.38
362.146	7.38
362.933	5.38
363.72	9.38
364.507	4.38
365.294	6.38
366.081	4.38
366.867	5.38
367.654	6.38
368.44	5.38
369.227	6.38
370.013	4.38
370.8	5.38
371.586	3.38
372.372	4.38
373.158	4.38
373.944	5.38
374.73	5.38
375.516	6.38
376.302	4.38
377.088	6.38
377.873	5.38
378.659	4.38
379.445	5.38
380.23	4.38
381.015	6.38
381.801	6.38
382.586	5.38
383.371	3.38
384.156	6.38
384.941	5.38
385.726	7.38
386.511	7.38
387.296	6.38
388.08	4.38
388.865	6.38
389.649	4.38
390.434	5.38
391.218	6.38
392.003	7.38
392.787	6.38
393.571	7.38
394.355	4.38
395.139	6.38
395.923	5.38
396.707	5.38
397.491	8.38
398.274	9.38
399.058	8.38
399.842	7.38
400.625	9.38
401.408	4.38
402.192	7.38
402.975	8.38
403.758	6.38
404.541	8.38
405.324	6.38
406.107	9.38
406.89	5.38
407.673	10.38
408.456	9.38
409.238	9.38
410.021	9.38
410.803	8.38
411.586	11.38
412.368	9.38
413.151	8.38
413.933	12.38
414.715	9.38
415.497	9.38
416.279	10.38
417.061	10.38
417.843	10.38
418.624	10.38
419.406	11.38
420.188	8.38
420.969	9.38
421.751	9.38
422.532	9.38
423.313	9.38
424.095	12.38
424.876	13.38
425.657	12.38
426.438	12.38
427.219	12.38
428	11.38
428.78	12.38
429.561	13.38
430.342	13.38
431.122	13.38
431.903	14.38
432.683	17.38
433.464	13.38
434.244	14.38
435.024	16.38
435.804	16.38
436.584	14.38
437.364	20.38
438.144	19.38
438.924	21.38
439.704	20.38
440.483	25.38
441.263	25.38
442.042	22.38
442.822	27.38
443.601	26.38
444.38	30.38
445.16	33.38
445.939	36.38
446.718	36.38
447.497	39.38
448.276	45.38
449.054	49.38
449.833	49.38
450.612	56.38
451.391	59.38
452.169	67.38
452.948	70.38
453.726	80.38
454.504	89.38
455.282	94.38
456.061	107.38
456.839	121.38
457.617	128.38
458.395	147.38
459.172	162.38
459.95	181.38
460.728	201.38
461.506	227.38
462.283	246.38
463.061	279.38
463.838	310.38
464.615	347.38
465.393	384.38
466.17	424.38
466.947	469.38
467.724	525.38
468.501	585.38
469.278	653.38
470.055	717.38
470.831	796.38
471.608	891.38
472.385	987.38
473.161	1082.38
473.938	1184.38
474.714	1329.38
475.49	1465.38
476.266	1602.38
477.043	1767.38
477.819	1950.38
478.595	2158.38
479.371	2345.38
480.146	2575.38
480.922	2826.38
481.698	3094.38
482.473	3405.38
483.249	3704.38
484.024	4067.38
484.8	4461.38
485.575	4862.38
486.35	5324.38
487.126	5791.38
487.901	6340.38
488.676	6935.38
489.451	7541.38
490.225	8238.38
491	8948.38
491.775	9733.38
492.55	10607.38
493.324	11420.38
494.099	12283.38
494.873	13264.38
495.647	14260.38
496.422	15273.38
497.196	16357.38
497.97	17437.38
498.744	18506.38
499.518	19586.38
500.292	20684.38
501.066	21770.38
501.839	22735.38
502.613	23566.38
503.387	24393.38
504.16	25147.38
504.934	25516.38
505.707	25788.38
506.48	26009.38
507.253	26075.38
508.027	26000.38
508.8	25857.38
509.573	25636.38
510.346	25077.38
511.118	24563.38
511.891	23877.38
512.664	23186.38
513.437	22436.38
514.209	21614.38
514.982	20702.38
515.754	19893.38
516.526	19101.38
517.298	18274.38
518.071	17542.38
518.843	16858.38
519.615	16217.38
520.387	15604.38
521.159	14989.38
521.93	14356.38
522.702	13798.38
523.474	13177.38
524.245	12631.38
525.017	12131.38
525.788	11702.38
526.56	11143.38
527.331	10627.38
528.102	10201.38
528.873	9744.38
529.644	9267.38
530.415	8794.38
531.186	8385.38
531.957	7985.38
532.728	7619.38
533.498	7214.38
534.269	6793.38
535.039	6454.38
535.81	6099.38
536.58	5771.38
537.351	5431.38
538.121	5145.38
538.891	4862.38
539.661	4617.38
540.431	4356.38
541.201	4100.38
541.971	3905.38
542.741	3687.38
543.51	3519.38
544.28	3343.38
545.05	3177.38
545.819	3018.38
546.588	2881.38
547.358	2737.38
548.127	2592.38
548.896	2470.38
549.665	2347.38
550.434	2222.38
551.203	2099.38
551.972	1993.38
552.741	1882.38
553.51	1792.38
554.278	1686.38
555.047	1592.38
555.815	1489.38
556.584	1428.38
557.352	1334.38
558.121	1273.38
558.889	1203.38
559.657	1138.38
560.425	1069.38
561.193	1013.38
561.961	952.38
562.729	900.38
563.496	844.38
564.264	812.38
565.032	755.38
565.799	717.38
566.567	686.38
567.334	640.38
568.101	612.38
568.869	575.38
569.636	537.38
570.403	511.38
571.17	481.38
571.937	458.38
572.704	427.38
573.471	400.38
574.237	375.38
575.004	354.38
575.771	339.38
576.537	320.38
577.303	300.38
578.07	286.38
578.836	264.38
579.602	249.38
580.368	237.38
581.134	226.38
581.9	209.38
582.666	198.38
583.432	193.38
584.198	179.38
584.964	166.38
585.729	165.38
586.495	154.38
587.26	145.38
588.025	135.38
588.791	133.38
589.556	124.38
590.321	119.38
591.086	108.38
591.851	101.38
592.616	99.38
593.381	96.38
594.146	87.38
594.911	86.38
595.675	84.38
596.44	79.38
597.204	78.38
597.969	72.38
598.733	67.38
599.497	62.38
600.261	60.38
601.025	58.38
601.79	55.38
602.553	55.38
603.317	49.38
604.081	49.38
604.845	42.38
605.609	47.38
606.372	46.38
607.136	39.38
607.899	43.38
608.662	42.38
609.426	37.38
610.189	36.38
610.952	34.38
611.715	34.38
612.478	33.38
613.241	29.38
614.004	28.38
614.767	30.38
615.529	25.38
616.292	26.38
617.055	27.38
617.817	26.38
618.579	21.38
619.342	22.38
620.104	20.38
620.866	21.38
621.628	18.38
622.39	21.38
623.152	20.38
623.914	19.38
624.676	19.38
625.438	17.38
626.199	20.38
626.961	15.38
627.722	14.38
628.484	14.38
629.245	16.38
630.006	14.38
630.768	12.38
631.529	16.38
632.29	14.38
633.051	14.38
633.812	12.38
634.573	13.38
635.333	11.38
636.094	10.38
636.855	10.38
637.615	11.38
638.376	9.38
639.136	11.38
639.896	9.38
640.657	10.38
641.417	9.38
642.177	9.38
642.937	8.38
643.697	9.38
644.457	10.38
645.216	8.38
645.976	9.38
646.736	7.38
647.495	7.38
648.255	8.38
649.014	7.38
649.774	9.38
650.533	5.38
651.292	10.38
652.051	9.38
652.81	7.38
653.569	6.38
654.328	5.38
655.087	8.38
655.846	6.38
656.604	6.38
657.363	7.38
658.121	6.38
658.88	5.38
659.638	6.38
660.397	6.38
661.155	5.38
661.913	6.38
662.671	7.38
663.429	6.38
664.187	6.38
664.945	3.38
665.703	5.38
666.46	7.38
667.218	7.38
667.976	4.38
668.733	5.38
669.49	4.38
670.248	3.38
671.005	6.38
671.762	7.38
672.519	4.38
673.276	5.38
674.033	5.38
674.79	6.38
675.547	3.38
676.304	4.38
677.06	5.38
677.817	6.38
678.574	4.38
679.33	2.38
680.086	4.38
680.843	4.38
681.599	4.38
682.355	6.38
683.111	3.38
683.867	5.38
684.623	2.38
685.379	3.38
686.135	4.38
686.89	4.38
687.646	4.38
688.402	3.38
689.157	4.38
689.912	5.38
690.668	4.38
691.423	6.38
692.178	4.38
692.933	5.38
693.688	5.38
694.443	4.38
695.198	5.38
695.953	3.38
696.708	4.38
697.462	4.38
698.217	4.38
698.972	2.38
699.726	5.38
700.48	3.38
701.235	2.38
701.989	3.38
702.743	3.38
703.497	3.38
704.251	4.38
705.005	2.38
705.759	2.38
706.513	4.38
707.266	3.38
708.02	2.38
708.774	3.38
709.527	5.38
710.28	3.38
711.034	3.38
711.787	5.38
712.54	4.38
713.293	5.38
714.046	5.38
714.799	4.38
715.552	3.38
716.305	3.38
717.058	4.38
717.81	4.38
718.563	4.38
719.315	3.38
720.068	5.38
720.82	1.38
721.573	2.38
722.325	4.38
723.077	2.38
723.829	3.38
724.581	3.38
725.333	2.38
726.085	4.38
726.836	5.38
727.588	5.38
728.34	4.38
729.091	3.38
729.843	4.38
730.594	6.38
731.346	4.38
732.097	5.38
732.848	4.38
733.599	5.38
734.35	2.38
735.101	2.38
735.852	5.38
736.603	2.38
737.354	2.38
738.104	4.38
738.855	4.38
739.605	5.38
740.356	5.38
741.106	5.38
741.856	5.38
742.607	4.38
743.357	4.38
744.107	4.38
744.857	2.38
745.607	2.38
746.357	4.38
747.106	6.38
747.856	4.38
748.606	1.38
749.355	5.38
750.105	5.38
750.854	4.38
751.603	5.38
752.353	5.38
753.102	3.38
753.851	6.38
754.6	4.38
755.349	5.38
756.098	5.38
756.847	5.38
757.595	5.38
758.344	5.38
759.093	5.38
759.841	4.38
760.589	6.38
761.338	7.38
762.086	8.38
762.834	6.38
763.582	7.38
764.331	4.38
765.079	5.38
765.826	5.38
766.574	5.38
767.322	6.38
768.07	8.38
768.817	5.38
769.565	6.38
770.312	7.38
771.06	9.38
771.807	7.38
772.554	7.38
773.302	8.38
774.049	8.38
774.796	7.38
775.543	9.38
776.29	9.38
777.036	10.38
777.783	8.38
778.53	7.38
779.276	7.38
780.023	8.38
780.769	9.38
781.516	8.38
782.262	8.38
783.008	9.38
783.754	10.38
784.5	10.38
785.246	8.38
785.992	9.38
786.738	10.38
787.484	9.38
788.23	8.38
788.975	8.38
789.721	9.38
790.466	10.38
791.212	9.38
791.957	7.38
792.702	9.38
793.447	9.38
794.193	9.38
794.938	7.38
795.683	9.38
796.427	5.38
797.172	8.38
797.917	9.38
798.662	8.38
799.406	6.38
800.151	6.38
800.895	8.38
801.64	7.38
802.384	5.38
803.128	9.38
803.872	4.38
804.616	4.38
805.36	8.38
806.104	7.38
806.848	6.38
807.592	3.38
808.336	5.38
809.079	4.38
809.823	5.38
810.566	6.38
811.31	4.38
812.053	6.38
812.796	4.38
813.539	4.38
814.283	7.38
815.026	4.38
815.769	5.38
816.511	6.38
817.254	6.38
817.997	6.38
818.74	4.38
819.482	7.38
820.225	4.38
820.967	5.38
821.71	5.38
822.452	5.38
823.194	3.38
823.936	4.38
824.678	2.38
825.42	6.38
826.162	4.38
826.904	5.38
827.646	3.38
828.388	1.38
829.129	3.38
829.871	2.38
830.612	4.38
831.354	4.38
832.095	3.38
832.836	5.38
833.577	2.38
834.319	5.38
835.06	3.38
835.801	2.38
836.542	4.38
837.282	3.38
838.023	4.38
838.764	2.38
839.504	6.38
840.245	3.38
840.985	2.38
841.726	6.38
842.466	2.38
843.206	3.38
843.946	1.38
844.687	4.38
845.427	2.38
846.166	2.38
846.906	2.38
847.646	5.38
848.386	4.38
849.125	3.38
849.865	3.38
850.605	2.38
851.344	1.38
852.083	2.38
852.823	2.38
853.562	1.38
854.301	2.38
855.04	3.38
855.779	4.38
856.518	1.38
857.257	1.38
857.995	1.38
858.734	2.38
859.473	4.38
860.211	2.38
860.95	4.38
861.688	0.38
862.426	2.38
863.165	1.38
863.903	3.38
864.641	3.38
865.379	2.38
866.117	3.38
866.855	3.38
867.593	2.38
868.33	2.38
869.068	3.38
869.806	2.38
870.543	1.38
871.28	3.38
872.018	4.38
872.755	2.38
873.492	2.38
874.229	0.38
874.967	2.38
875.703	2.38
876.44	2.38
877.177	-0.62
877.914	0.38
878.651	2.38
879.387	4.38
880.124	4.38
880.86	1.38
881.597	2.38
882.333	0.38
883.069	2.38
883.806	0.38
884.542	1.38
885.278	2.38
886.014	1.38
886.749	2.38
887.485	1.38
888.221	-1.62
888.957	-0.62
889.692	4.38
890.428	3.38
891.163	2.38
891.899	1.38
892.634	2.38
893.369	1.38
894.104	3.38
894.839	-0.62
895.574	2.38
896.309	2.38
897.044	-0.62
897.779	1.38
898.514	-1.62
899.248	2.38
899.983	-1.62
900.717	2.38
901.452	2.38
902.186	4.38
902.92	1.38
903.654	0.38
904.389	0.38
905.123	-0.62
905.857	2.38
906.59	0.38
907.324	0.38
908.058	1.38
908.792	0.38
909.525	1.38
910.259	0.38
910.992	3.38
911.726	1.38
912.459	0.38
913.192	-0.62
913.925	0.38
914.658	-1.62
915.391	-1.62
916.124	2.38
916.857	-0.62
917.59	0.38
918.323	1.38
919.055	1.38
919.788	2.38
920.521	2.38
921.253	0.38
921.985	0.38
922.718	0.38
923.45	1.38
924.182	1.38
924.914	1.38
925.646	-0.62
926.378	2.38
927.11	0.38
927.841	2.38
928.573	1.38
929.305	1.38
930.036	1.38
930.768	3.38
931.499	-1.62
932.23	0.38
932.962	1.38
933.693	0.38
934.424	0.38
935.155	0.38
935.886	1.38
936.617	-0.62
937.348	-1.62
938.078	-1.62
938.809	1.38
939.54	1.38
940.27	-0.62
941.001	1.38
941.731	0.38
942.461	2.38
943.191	1.38
943.922	2.38
944.652	-0.62
945.382	-1.62
946.112	-0.62
946.841	1.38
947.571	1.38
948.301	1.38
949.031	1.38
949.76	2.38
950.49	-0.62
951.219	0.38
951.948	-0.62
952.678	0.38
953.407	1.38
954.136	1.38
954.865	2.38
955.594	-1.62
956.323	0.38
957.052	0.38
957.78	3.38
958.509	0.38
959.238	1.38
959.966	-0.62
960.695	-0.62
961.423	1.38
962.151	2.38
962.88	2.38
963.608	1.38
964.336	1.38
965.064	1.38
965.792	0.38
966.52	0.38
967.247	-1.62
967.975	0.38
968.703	2.38
969.43	1.38
970.158	-0.62
970.885	2.38
971.613	0.38
972.34	-1.62
973.067	0.38
973.794	2.38
974.521	-0.62
975.248	1.38
975.975	0.38
976.702	0.38
977.429	-1.62
978.156	-0.62
978.882	1.38
979.609	-0.62
980.335	1.38
981.062	0.38
981.788	1.38
982.514	2.38
983.24	1.38
983.967	1.38
984.693	0.38
985.419	-1.62
986.144	0.38
986.87	1.38
987.596	2.38
988.322	0.38
989.047	2.38
989.773	-0.62
990.498	2.38
991.224	2.38
991.949	-0.62
992.674	3.38
993.399	0.38
994.124	1.38
994.849	1.38
995.574	1.38
996.299	-1.62
997.024	1.38
997.749	0.38
998.473	-0.62
999.198	1.38
999.922	1.38
1000.647	0.38
1001.371	4.38
1002.095	-1.62
1002.82	1.38
1003.544	-2.62
1004.268	1.38
1004.992	1.38
1005.716	1.38
1006.439	1.38
1007.163	2.38
1007.887	0.38
1008.611	-0.62
1009.334	0.38
1010.058	0.38
1010.781	-1.62
1011.504	1.38
1012.228	-1.62
1012.951	-1.62
1013.674	0.38
1014.397	-0.62
1015.12	0.38
