节点500_285_QEPB04081__154__14-58-07-185.txt的数据

Date: Wed Nov 12 14:58:07 CST 2025
User: PC
Spectrometer: QEPB0408
触发模式: 0
积分时间 (秒): 1.000000E-2
Scans to average: 1
启用暗噪声校正: true
启用非线性校正: false
滑动平均宽度: 0
X轴模式: Wavelengths
Number of Pixels in Spectrum: 1044
>>>>>Begin Spectral Data<<<<<
220.843	3.62
221.644	2.62
222.444	1.62
223.244	3.62
224.045	0.62
224.845	3.62
225.645	1.62
226.445	2.62
227.245	1.62
228.045	2.62
228.845	3.62
229.645	2.62
230.444	4.62
231.244	4.62
232.043	5.62
232.843	2.62
233.642	2.62
234.442	3.62
235.241	2.62
236.04	3.62
236.839	3.62
237.638	3.62
238.437	2.62
239.236	-0.38
240.035	3.62
240.833	4.62
241.632	4.62
242.43	5.62
243.229	3.62
244.027	5.62
244.826	5.62
245.624	8.62
246.422	6.62
247.22	5.62
248.018	5.62
248.816	5.62
249.614	5.62
250.412	8.62
251.21	6.62
252.007	9.62
252.805	9.62
253.602	6.62
254.4	7.62
255.197	8.62
255.994	8.62
256.791	9.62
257.589	8.62
258.386	9.62
259.183	9.62
259.979	10.62
260.776	11.62
261.573	12.62
262.37	11.62
263.166	8.62
263.963	10.62
264.759	11.62
265.556	10.62
266.352	12.62
267.148	14.62
267.944	13.62
268.74	16.62
269.536	14.62
270.332	15.62
271.128	18.62
271.924	15.62
272.719	16.62
273.515	17.62
274.311	17.62
275.106	15.62
275.901	19.62
276.697	18.62
277.492	19.62
278.287	20.62
279.082	20.62
279.877	19.62
280.672	20.62
281.467	20.62
282.262	17.62
283.056	17.62
283.851	21.62
284.646	16.62
285.44	20.62
286.234	21.62
287.029	17.62
287.823	20.62
288.617	20.62
289.411	22.62
290.205	18.62
290.999	18.62
291.793	17.62
292.587	20.62
293.381	17.62
294.174	16.62
294.968	19.62
295.761	15.62
296.555	13.62
297.348	13.62
298.141	14.62
298.935	16.62
299.728	15.62
300.521	13.62
301.314	13.62
302.107	12.62
302.899	13.62
303.692	11.62
304.485	11.62
305.277	11.62
306.07	11.62
306.862	14.62
307.655	10.62
308.447	13.62
309.239	11.62
310.031	8.62
310.823	12.62
311.615	9.62
312.407	8.62
313.199	10.62
313.991	10.62
314.783	8.62
315.574	7.62
316.366	7.62
317.157	8.62
317.949	9.62
318.74	8.62
319.531	7.62
320.322	10.62
321.113	7.62
321.904	7.62
322.695	8.62
323.486	8.62
324.277	7.62
325.068	6.62
325.858	9.62
326.649	8.62
327.439	7.62
328.23	6.62
329.02	6.62
329.81	7.62
330.6	6.62
331.391	7.62
332.181	8.62
332.971	8.62
333.76	7.62
334.55	6.62
335.34	6.62
336.13	5.62
336.919	5.62
337.709	6.62
338.498	6.62
339.287	5.62
340.077	7.62
340.866	6.62
341.655	5.62
342.444	6.62
343.233	7.62
344.022	5.62
344.811	9.62
345.6	6.62
346.388	4.62
347.177	7.62
347.965	5.62
348.754	6.62
349.542	6.62
350.33	5.62
351.119	4.62
351.907	4.62
352.695	8.62
353.483	6.62
354.271	5.62
355.059	6.62
355.846	5.62
356.634	5.62
357.422	6.62
358.209	8.62
358.997	6.62
359.784	6.62
360.571	6.62
361.359	8.62
362.146	6.62
362.933	3.62
363.72	5.62
364.507	2.62
365.294	4.62
366.081	4.62
366.867	4.62
367.654	4.62
368.44	5.62
369.227	5.62
370.013	3.62
370.8	5.62
371.586	6.62
372.372	6.62
373.158	7.62
373.944	5.62
374.73	4.62
375.516	3.62
376.302	5.62
377.088	2.62
377.873	7.62
378.659	5.62
379.445	4.62
380.23	5.62
381.015	6.62
381.801	5.62
382.586	7.62
383.371	1.62
384.156	5.62
384.941	4.62
385.726	7.62
386.511	8.62
387.296	6.62
388.08	7.62
388.865	6.62
389.649	7.62
390.434	3.62
391.218	5.62
392.003	5.62
392.787	5.62
393.571	5.62
394.355	5.62
395.139	5.62
395.923	4.62
396.707	7.62
397.491	6.62
398.274	5.62
399.058	7.62
399.842	5.62
400.625	8.62
401.408	6.62
402.192	6.62
402.975	9.62
403.758	9.62
404.541	7.62
405.324	6.62
406.107	6.62
406.89	9.62
407.673	9.62
408.456	9.62
409.238	9.62
410.021	8.62
410.803	7.62
411.586	8.62
412.368	8.62
413.151	8.62
413.933	10.62
414.715	8.62
415.497	7.62
416.279	10.62
417.061	10.62
417.843	10.62
418.624	8.62
419.406	14.62
420.188	11.62
420.969	9.62
421.751	11.62
422.532	10.62
423.313	10.62
424.095	10.62
424.876	12.62
425.657	13.62
426.438	11.62
427.219	11.62
428	11.62
428.78	13.62
429.561	13.62
430.342	10.62
431.122	14.62
431.903	14.62
432.683	16.62
433.464	15.62
434.244	18.62
435.024	16.62
435.804	19.62
436.584	20.62
437.364	16.62
438.144	19.62
438.924	19.62
439.704	22.62
440.483	24.62
441.263	23.62
442.042	26.62
442.822	26.62
443.601	28.62
444.38	28.62
445.16	27.62
445.939	35.62
446.718	35.62
447.497	36.62
448.276	39.62
449.054	44.62
449.833	48.62
450.612	50.62
451.391	55.62
452.169	58.62
452.948	65.62
453.726	71.62
454.504	76.62
455.282	85.62
456.061	96.62
456.839	109.62
457.617	116.62
458.395	126.62
459.172	143.62
459.95	161.62
460.728	174.62
461.506	197.62
462.283	220.62
463.061	245.62
463.838	277.62
464.615	307.62
465.393	340.62
466.17	379.62
466.947	432.62
467.724	481.62
468.501	541.62
469.278	599.62
470.055	669.62
470.831	741.62
471.608	833.62
472.385	921.62
473.161	1031.62
473.938	1148.62
474.714	1268.62
475.49	1416.62
476.266	1559.62
477.043	1740.62
477.819	1902.62
478.595	2097.62
479.371	2342.62
480.146	2592.62
480.922	2875.62
481.698	3173.62
482.473	3507.62
483.249	3869.62
484.024	4291.62
484.8	4696.62
485.575	5211.62
486.35	5734.62
487.126	6301.62
487.901	6940.62
488.676	7606.62
489.451	8386.62
490.225	9184.62
491	10047.62
491.775	11020.62
492.55	12036.62
493.324	13060.62
494.099	14089.62
494.873	15151.62
495.647	16455.62
496.422	17649.62
497.196	18876.62
497.97	20193.62
498.744	21466.62
499.518	22629.62
500.292	23802.62
501.066	24941.62
501.839	25843.62
502.613	26655.62
503.387	27396.62
504.16	27993.62
504.934	28198.62
505.707	28303.62
506.48	28322.62
507.253	28111.62
508.027	27711.62
508.8	27334.62
509.573	26757.62
510.346	26039.62
511.118	25164.62
511.891	24261.62
512.664	23313.62
513.437	22409.62
514.209	21464.62
514.982	20535.62
515.754	19562.62
516.526	18696.62
517.298	17849.62
518.071	17058.62
518.843	16447.62
519.615	15819.62
520.387	15149.62
521.159	14578.62
521.93	13982.62
522.702	13420.62
523.474	12886.62
524.245	12346.62
525.017	11790.62
525.788	11331.62
526.56	10842.62
527.331	10310.62
528.102	9833.62
528.873	9348.62
529.644	8817.62
530.415	8357.62
531.186	7970.62
531.957	7581.62
532.728	7184.62
533.498	6775.62
534.269	6418.62
535.039	6054.62
535.81	5705.62
536.58	5421.62
537.351	5077.62
538.121	4803.62
538.891	4524.62
539.661	4313.62
540.431	4038.62
541.201	3828.62
541.971	3629.62
542.741	3465.62
543.51	3263.62
544.28	3115.62
545.05	2963.62
545.819	2813.62
546.588	2675.62
547.358	2535.62
548.127	2407.62
548.896	2273.62
549.665	2184.62
550.434	2054.62
551.203	1940.62
551.972	1854.62
552.741	1744.62
553.51	1630.62
554.278	1542.62
555.047	1464.62
555.815	1377.62
556.584	1300.62
557.352	1225.62
558.121	1142.62
558.889	1089.62
559.657	1028.62
560.425	978.62
561.193	925.62
561.961	859.62
562.729	819.62
563.496	770.62
564.264	730.62
565.032	678.62
565.799	655.62
566.567	616.62
567.334	581.62
568.101	553.62
568.869	522.62
569.636	494.62
570.403	454.62
571.17	435.62
571.937	421.62
572.704	378.62
573.471	368.62
574.237	348.62
575.004	324.62
575.771	311.62
576.537	285.62
577.303	273.62
578.07	260.62
578.836	239.62
579.602	229.62
580.368	215.62
581.134	204.62
581.9	190.62
582.666	182.62
583.432	173.62
584.198	158.62
584.964	152.62
585.729	145.62
586.495	140.62
587.26	135.62
588.025	124.62
588.791	117.62
589.556	108.62
590.321	109.62
591.086	99.62
591.851	98.62
592.616	94.62
593.381	87.62
594.146	81.62
594.911	80.62
595.675	75.62
596.44	75.62
597.204	70.62
597.969	69.62
598.733	63.62
599.497	63.62
600.261	56.62
601.025	57.62
601.79	55.62
602.553	47.62
603.317	49.62
604.081	45.62
604.845	43.62
605.609	44.62
606.372	41.62
607.136	38.62
607.899	37.62
608.662	40.62
609.426	30.62
610.189	31.62
610.952	36.62
611.715	31.62
612.478	33.62
613.241	28.62
614.004	27.62
614.767	25.62
615.529	22.62
616.292	22.62
617.055	24.62
617.817	22.62
618.579	21.62
619.342	23.62
620.104	22.62
620.866	19.62
621.628	20.62
622.39	18.62
623.152	20.62
623.914	18.62
624.676	17.62
625.438	16.62
626.199	15.62
626.961	16.62
627.722	13.62
628.484	12.62
629.245	11.62
630.006	14.62
630.768	12.62
631.529	13.62
632.29	10.62
633.051	12.62
633.812	9.62
634.573	12.62
635.333	11.62
636.094	11.62
636.855	12.62
637.615	10.62
638.376	9.62
639.136	8.62
639.896	10.62
640.657	8.62
641.417	9.62
642.177	11.62
642.937	9.62
643.697	11.62
644.457	7.62
645.216	6.62
645.976	6.62
646.736	6.62
647.495	6.62
648.255	6.62
649.014	8.62
649.774	8.62
650.533	8.62
651.292	8.62
652.051	3.62
652.81	5.62
653.569	6.62
654.328	7.62
655.087	5.62
655.846	7.62
656.604	6.62
657.363	5.62
658.121	6.62
658.88	4.62
659.638	6.62
660.397	4.62
661.155	5.62
661.913	6.62
662.671	4.62
663.429	6.62
664.187	3.62
664.945	7.62
665.703	3.62
666.46	4.62
667.218	6.62
667.976	5.62
668.733	7.62
669.49	4.62
670.248	6.62
671.005	6.62
671.762	4.62
672.519	5.62
673.276	2.62
674.033	3.62
674.79	4.62
675.547	6.62
676.304	2.62
677.06	4.62
677.817	4.62
678.574	3.62
679.33	3.62
680.086	6.62
680.843	6.62
681.599	5.62
682.355	3.62
683.111	3.62
683.867	3.62
684.623	4.62
685.379	3.62
686.135	2.62
686.89	3.62
687.646	4.62
688.402	4.62
689.157	4.62
689.912	3.62
690.668	3.62
691.423	5.62
692.178	3.62
692.933	4.62
693.688	4.62
694.443	3.62
695.198	3.62
695.953	4.62
696.708	3.62
697.462	3.62
698.217	4.62
698.972	5.62
699.726	2.62
700.48	2.62
701.235	3.62
701.989	5.62
702.743	5.62
703.497	2.62
704.251	3.62
705.005	3.62
705.759	1.62
706.513	5.62
707.266	4.62
708.02	4.62
708.774	3.62
709.527	3.62
710.28	3.62
711.034	2.62
711.787	5.62
712.54	3.62
713.293	6.62
714.046	4.62
714.799	2.62
715.552	0.62
716.305	3.62
717.058	2.62
717.81	2.62
718.563	3.62
719.315	3.62
720.068	3.62
720.82	3.62
721.573	3.62
722.325	2.62
723.077	4.62
723.829	1.62
724.581	3.62
725.333	5.62
726.085	4.62
726.836	3.62
727.588	4.62
728.34	2.62
729.091	3.62
729.843	5.62
730.594	5.62
731.346	5.62
732.097	4.62
732.848	1.62
733.599	5.62
734.35	4.62
735.101	5.62
735.852	1.62
736.603	4.62
737.354	6.62
738.104	4.62
738.855	5.62
739.605	6.62
740.356	4.62
741.106	6.62
741.856	4.62
742.607	5.62
743.357	4.62
744.107	3.62
744.857	3.62
745.607	5.62
746.357	4.62
747.106	5.62
747.856	5.62
748.606	8.62
749.355	2.62
750.105	7.62
750.854	5.62
751.603	6.62
752.353	8.62
753.102	6.62
753.851	5.62
754.6	8.62
755.349	5.62
756.098	5.62
756.847	6.62
757.595	4.62
758.344	7.62
759.093	4.62
759.841	6.62
760.589	7.62
761.338	9.62
762.086	7.62
762.834	7.62
763.582	8.62
764.331	9.62
765.079	7.62
765.826	8.62
766.574	6.62
767.322	6.62
768.07	9.62
768.817	8.62
769.565	9.62
770.312	11.62
771.06	8.62
771.807	12.62
772.554	8.62
773.302	7.62
774.049	5.62
774.796	9.62
775.543	8.62
776.29	8.62
777.036	9.62
777.783	9.62
778.53	9.62
779.276	7.62
780.023	10.62
780.769	9.62
781.516	6.62
782.262	7.62
783.008	9.62
783.754	10.62
784.5	7.62
785.246	7.62
785.992	8.62
786.738	6.62
787.484	7.62
788.23	8.62
788.975	7.62
789.721	11.62
790.466	7.62
791.212	9.62
791.957	8.62
792.702	9.62
793.447	9.62
794.193	8.62
794.938	6.62
795.683	9.62
796.427	8.62
797.172	6.62
797.917	7.62
798.662	7.62
799.406	7.62
800.151	8.62
800.895	5.62
801.64	8.62
802.384	6.62
803.128	7.62
803.872	7.62
804.616	6.62
805.36	6.62
806.104	5.62
806.848	6.62
807.592	5.62
808.336	5.62
809.079	7.62
809.823	6.62
810.566	8.62
811.31	6.62
812.053	6.62
812.796	5.62
813.539	1.62
814.283	3.62
815.026	5.62
815.769	4.62
816.511	7.62
817.254	5.62
817.997	4.62
818.74	2.62
819.482	3.62
820.225	3.62
820.967	5.62
821.71	4.62
822.452	3.62
823.194	4.62
823.936	1.62
824.678	3.62
825.42	4.62
826.162	2.62
826.904	5.62
827.646	3.62
828.388	5.62
829.129	4.62
829.871	5.62
830.612	1.62
831.354	4.62
832.095	2.62
832.836	3.62
833.577	4.62
834.319	3.62
835.06	6.62
835.801	3.62
836.542	3.62
837.282	4.62
838.023	4.62
838.764	4.62
839.504	3.62
840.245	4.62
840.985	3.62
841.726	2.62
842.466	3.62
843.206	3.62
843.946	3.62
844.687	2.62
845.427	0.62
846.166	3.62
846.906	3.62
847.646	3.62
848.386	2.62
849.125	4.62
849.865	4.62
850.605	3.62
851.344	1.62
852.083	2.62
852.823	3.62
853.562	2.62
854.301	2.62
855.04	1.62
855.779	3.62
856.518	2.62
857.257	3.62
857.995	3.62
858.734	1.62
859.473	2.62
860.211	2.62
860.95	2.62
861.688	1.62
862.426	1.62
863.165	2.62
863.903	2.62
864.641	2.62
865.379	1.62
866.117	1.62
866.855	0.62
867.593	1.62
868.33	-0.38
869.068	3.62
869.806	3.62
870.543	0.62
871.28	3.62
872.018	1.62
872.755	4.62
873.492	1.62
874.229	3.62
874.967	1.62
875.703	2.62
876.44	0.62
877.177	2.62
877.914	2.62
878.651	1.62
879.387	4.62
880.124	2.62
880.86	0.62
881.597	2.62
882.333	0.62
883.069	3.62
883.806	-0.38
884.542	0.62
885.278	0.62
886.014	-0.38
886.749	2.62
887.485	0.62
888.221	1.62
888.957	-0.38
889.692	3.62
890.428	2.62
891.163	-0.38
891.899	1.62
892.634	0.62
893.369	0.62
894.104	1.62
894.839	1.62
895.574	2.62
896.309	0.62
897.044	1.62
897.779	1.62
898.514	0.62
899.248	0.62
899.983	0.62
900.717	1.62
901.452	-0.38
902.186	-0.38
902.92	-0.38
903.654	0.62
904.389	1.62
905.123	-0.38
905.857	1.62
906.59	1.62
907.324	2.62
908.058	-1.38
908.792	0.62
909.525	1.62
910.259	-0.38
910.992	-2.38
911.726	-0.38
912.459	1.62
913.192	2.62
913.925	-2.38
914.658	2.62
915.391	2.62
916.124	1.62
916.857	1.62
917.59	0.62
918.323	1.62
919.055	0.62
919.788	1.62
920.521	1.62
921.253	-0.38
921.985	-0.38
922.718	0.62
923.45	1.62
924.182	-0.38
924.914	0.62
925.646	1.62
926.378	0.62
927.11	0.62
927.841	1.62
928.573	-0.38
929.305	-1.38
930.036	0.62
930.768	1.62
931.499	-0.38
932.23	0.62
932.962	1.62
933.693	0.62
934.424	-0.38
935.155	1.62
935.886	3.62
936.617	1.62
937.348	2.62
938.078	0.62
938.809	-0.38
939.54	1.62
940.27	0.62
941.001	0.62
941.731	-1.38
942.461	-0.38
943.191	-0.38
943.922	-0.38
944.652	1.62
945.382	0.62
946.112	1.62
946.841	-0.38
947.571	-0.38
948.301	1.62
949.031	0.62
949.76	-0.38
950.49	-1.38
951.219	0.62
951.948	-0.38
952.678	-0.38
953.407	4.62
954.136	1.62
954.865	1.62
955.594	0.62
956.323	1.62
957.052	0.62
957.78	-2.38
958.509	1.62
959.238	0.62
959.966	-1.38
960.695	0.62
961.423	1.62
962.151	0.62
962.88	1.62
963.608	1.62
964.336	-0.38
965.064	0.62
965.792	1.62
966.52	-0.38
967.247	-0.38
967.975	-0.38
968.703	-0.38
969.43	1.62
970.158	-0.38
970.885	0.62
971.613	-0.38
972.34	1.62
973.067	1.62
973.794	-0.38
974.521	1.62
975.248	0.62
975.975	-0.38
976.702	-0.38
977.429	-0.38
978.156	1.62
978.882	1.62
979.609	-1.38
980.335	-0.38
981.062	-0.38
981.788	0.62
982.514	0.62
983.24	0.62
983.967	0.62
984.693	2.62
985.419	-0.38
986.144	1.62
986.87	1.62
987.596	0.62
988.322	2.62
989.047	0.62
989.773	1.62
990.498	0.62
991.224	0.62
991.949	-1.38
992.674	1.62
993.399	-0.38
994.124	-3.38
994.849	0.62
995.574	1.62
996.299	-0.38
997.024	0.62
997.749	0.62
998.473	0.62
999.198	-0.38
999.922	0.62
1000.647	0.62
1001.371	3.62
1002.095	-2.38
1002.82	-0.38
1003.544	-2.38
1004.268	1.62
1004.992	1.62
1005.716	-1.38
1006.439	2.62
1007.163	2.62
1007.887	2.62
1008.611	0.62
1009.334	0.62
1010.058	-0.38
1010.781	1.62
1011.504	0.62
1012.228	-0.38
1012.951	0.62
1013.674	-0.38
1014.397	0.62
1015.12	0.62
