节点500_285_QEPB04081__253__14-59-45-879.txt的数据

Date: Wed Nov 12 14:59:45 CST 2025
User: PC
Spectrometer: QEPB0408
触发模式: 0
积分时间 (秒): 1.000000E-2
Scans to average: 1
启用暗噪声校正: true
启用非线性校正: false
滑动平均宽度: 0
X轴模式: Wavelengths
Number of Pixels in Spectrum: 1044
>>>>>Begin Spectral Data<<<<<
220.843	1.5
221.644	1.5
222.444	0.5
223.244	4.5
224.045	2.5
224.845	3.5
225.645	3.5
226.445	1.5
227.245	2.5
228.045	1.5
228.845	2.5
229.645	4.5
230.444	-0.5
231.244	1.5
232.043	2.5
232.843	4.5
233.642	5.5
234.442	4.5
235.241	3.5
236.04	3.5
236.839	6.5
237.638	4.5
238.437	4.5
239.236	5.5
240.035	3.5
240.833	4.5
241.632	4.5
242.43	4.5
243.229	3.5
244.027	3.5
244.826	6.5
245.624	4.5
246.422	6.5
247.22	6.5
248.018	6.5
248.816	7.5
249.614	5.5
250.412	6.5
251.21	6.5
252.007	6.5
252.805	4.5
253.602	5.5
254.4	5.5
255.197	8.5
255.994	8.5
256.791	8.5
257.589	7.5
258.386	9.5
259.183	9.5
259.979	9.5
260.776	9.5
261.573	11.5
262.37	7.5
263.166	10.5
263.963	11.5
264.759	13.5
265.556	9.5
266.352	14.5
267.148	13.5
267.944	14.5
268.74	14.5
269.536	14.5
270.332	16.5
271.128	15.5
271.924	13.5
272.719	18.5
273.515	13.5
274.311	17.5
275.106	16.5
275.901	16.5
276.697	18.5
277.492	17.5
278.287	21.5
279.082	18.5
279.877	19.5
280.672	17.5
281.467	17.5
282.262	20.5
283.056	17.5
283.851	20.5
284.646	19.5
285.44	18.5
286.234	19.5
287.029	17.5
287.823	20.5
288.617	19.5
289.411	13.5
290.205	16.5
290.999	17.5
291.793	18.5
292.587	20.5
293.381	17.5
294.174	17.5
294.968	14.5
295.761	15.5
296.555	15.5
297.348	16.5
298.141	16.5
298.935	17.5
299.728	13.5
300.521	13.5
301.314	14.5
302.107	13.5
302.899	9.5
303.692	11.5
304.485	11.5
305.277	11.5
306.07	13.5
306.862	13.5
307.655	11.5
308.447	10.5
309.239	12.5
310.031	11.5
310.823	11.5
311.615	7.5
312.407	9.5
313.199	9.5
313.991	10.5
314.783	10.5
315.574	7.5
316.366	8.5
317.157	9.5
317.949	12.5
318.74	10.5
319.531	7.5
320.322	9.5
321.113	7.5
321.904	6.5
322.695	6.5
323.486	8.5
324.277	8.5
325.068	6.5
325.858	8.5
326.649	6.5
327.439	7.5
328.23	4.5
329.02	5.5
329.81	7.5
330.6	4.5
331.391	9.5
332.181	6.5
332.971	5.5
333.76	7.5
334.55	3.5
335.34	7.5
336.13	3.5
336.919	5.5
337.709	8.5
338.498	7.5
339.287	5.5
340.077	6.5
340.866	6.5
341.655	5.5
342.444	5.5
343.233	6.5
344.022	7.5
344.811	5.5
345.6	6.5
346.388	7.5
347.177	8.5
347.965	4.5
348.754	7.5
349.542	4.5
350.33	7.5
351.119	5.5
351.907	5.5
352.695	6.5
353.483	5.5
354.271	4.5
355.059	9.5
355.846	6.5
356.634	5.5
357.422	5.5
358.209	5.5
358.997	4.5
359.784	4.5
360.571	6.5
361.359	6.5
362.146	6.5
362.933	5.5
363.72	4.5
364.507	3.5
365.294	6.5
366.081	5.5
366.867	4.5
367.654	3.5
368.44	5.5
369.227	5.5
370.013	4.5
370.8	5.5
371.586	4.5
372.372	4.5
373.158	6.5
373.944	5.5
374.73	5.5
375.516	4.5
376.302	5.5
377.088	3.5
377.873	4.5
378.659	5.5
379.445	4.5
380.23	7.5
381.015	4.5
381.801	6.5
382.586	3.5
383.371	1.5
384.156	4.5
384.941	5.5
385.726	3.5
386.511	7.5
387.296	8.5
388.08	4.5
388.865	6.5
389.649	5.5
390.434	7.5
391.218	7.5
392.003	6.5
392.787	5.5
393.571	7.5
394.355	5.5
395.139	6.5
395.923	5.5
396.707	6.5
397.491	5.5
398.274	4.5
399.058	6.5
399.842	7.5
400.625	6.5
401.408	6.5
402.192	6.5
402.975	7.5
403.758	7.5
404.541	7.5
405.324	5.5
406.107	6.5
406.89	5.5
407.673	7.5
408.456	6.5
409.238	8.5
410.021	8.5
410.803	7.5
411.586	8.5
412.368	10.5
413.151	9.5
413.933	6.5
414.715	8.5
415.497	9.5
416.279	7.5
417.061	8.5
417.843	10.5
418.624	9.5
419.406	12.5
420.188	9.5
420.969	9.5
421.751	10.5
422.532	9.5
423.313	11.5
424.095	10.5
424.876	9.5
425.657	12.5
426.438	11.5
427.219	10.5
428	11.5
428.78	13.5
429.561	10.5
430.342	11.5
431.122	14.5
431.903	12.5
432.683	14.5
433.464	16.5
434.244	16.5
435.024	16.5
435.804	17.5
436.584	17.5
437.364	19.5
438.144	20.5
438.924	20.5
439.704	17.5
440.483	22.5
441.263	25.5
442.042	24.5
442.822	25.5
443.601	27.5
444.38	28.5
445.16	32.5
445.939	33.5
446.718	38.5
447.497	40.5
448.276	42.5
449.054	41.5
449.833	47.5
450.612	52.5
451.391	59.5
452.169	59.5
452.948	70.5
453.726	73.5
454.504	77.5
455.282	89.5
456.061	98.5
456.839	106.5
457.617	119.5
458.395	133.5
459.172	145.5
459.95	159.5
460.728	183.5
461.506	199.5
462.283	226.5
463.061	251.5
463.838	283.5
464.615	313.5
465.393	350.5
466.17	395.5
466.947	437.5
467.724	494.5
468.501	547.5
469.278	608.5
470.055	673.5
470.831	762.5
471.608	832.5
472.385	928.5
473.161	1043.5
473.938	1152.5
474.714	1294.5
475.49	1408.5
476.266	1561.5
477.043	1750.5
477.819	1920.5
478.595	2125.5
479.371	2354.5
480.146	2574.5
480.922	2858.5
481.698	3163.5
482.473	3503.5
483.249	3836.5
484.024	4225.5
484.8	4640.5
485.575	5125.5
486.35	5611.5
487.126	6192.5
487.901	6772.5
488.676	7449.5
489.451	8192.5
490.225	8961.5
491	9806.5
491.775	10730.5
492.55	11686.5
493.324	12712.5
494.099	13695.5
494.873	14727.5
495.647	15966.5
496.422	17115.5
497.196	18290.5
497.97	19541.5
498.744	20756.5
499.518	21952.5
500.292	23102.5
501.066	24143.5
501.839	25144.5
502.613	26008.5
503.387	26794.5
504.16	27328.5
504.934	27648.5
505.707	27801.5
506.48	27898.5
507.253	27717.5
508.027	27358.5
508.8	27003.5
509.573	26553.5
510.346	25918.5
511.118	25082.5
511.891	24191.5
512.664	23408.5
513.437	22442.5
514.209	21565.5
514.982	20589.5
515.754	19700.5
516.526	18801.5
517.298	17989.5
518.071	17144.5
518.843	16594.5
519.615	15905.5
520.387	15298.5
521.159	14631.5
521.93	14029.5
522.702	13517.5
523.474	12959.5
524.245	12378.5
525.017	11830.5
525.788	11402.5
526.56	10891.5
527.331	10349.5
528.102	9898.5
528.873	9433.5
529.644	8953.5
530.415	8529.5
531.186	8089.5
531.957	7627.5
532.728	7265.5
533.498	6893.5
534.269	6494.5
535.039	6124.5
535.81	5782.5
536.58	5482.5
537.351	5168.5
538.121	4871.5
538.891	4624.5
539.661	4377.5
540.431	4105.5
541.201	3864.5
541.971	3704.5
542.741	3499.5
543.51	3335.5
544.28	3172.5
545.05	3004.5
545.819	2850.5
546.588	2694.5
547.358	2569.5
548.127	2452.5
548.896	2332.5
549.665	2211.5
550.434	2089.5
551.203	2000.5
551.972	1874.5
552.741	1768.5
553.51	1671.5
554.278	1574.5
555.047	1476.5
555.815	1405.5
556.584	1322.5
557.352	1248.5
558.121	1167.5
558.889	1107.5
559.657	1062.5
560.425	991.5
561.193	933.5
561.961	881.5
562.729	827.5
563.496	786.5
564.264	745.5
565.032	693.5
565.799	662.5
566.567	633.5
567.334	603.5
568.101	560.5
568.869	530.5
569.636	500.5
570.403	465.5
571.17	443.5
571.937	422.5
572.704	395.5
573.471	373.5
574.237	346.5
575.004	326.5
575.771	308.5
576.537	294.5
577.303	281.5
578.07	254.5
578.836	246.5
579.602	234.5
580.368	217.5
581.134	207.5
581.9	190.5
582.666	184.5
583.432	177.5
584.198	168.5
584.964	155.5
585.729	151.5
586.495	142.5
587.26	131.5
588.025	128.5
588.791	123.5
589.556	113.5
590.321	104.5
591.086	102.5
591.851	98.5
592.616	94.5
593.381	89.5
594.146	87.5
594.911	78.5
595.675	78.5
596.44	74.5
597.204	67.5
597.969	65.5
598.733	60.5
599.497	59.5
600.261	58.5
601.025	57.5
601.79	50.5
602.553	52.5
603.317	46.5
604.081	50.5
604.845	46.5
605.609	40.5
606.372	42.5
607.136	43.5
607.899	38.5
608.662	38.5
609.426	34.5
610.189	36.5
610.952	33.5
611.715	32.5
612.478	28.5
613.241	28.5
614.004	27.5
614.767	27.5
615.529	24.5
616.292	23.5
617.055	25.5
617.817	21.5
618.579	20.5
619.342	21.5
620.104	21.5
620.866	21.5
621.628	19.5
622.39	18.5
623.152	16.5
623.914	14.5
624.676	16.5
625.438	17.5
626.199	16.5
626.961	14.5
627.722	16.5
628.484	13.5
629.245	14.5
630.006	14.5
630.768	10.5
631.529	11.5
632.29	14.5
633.051	10.5
633.812	13.5
634.573	10.5
635.333	9.5
636.094	12.5
636.855	8.5
637.615	8.5
638.376	9.5
639.136	10.5
639.896	8.5
640.657	9.5
641.417	10.5
642.177	8.5
642.937	7.5
643.697	8.5
644.457	8.5
645.216	7.5
645.976	7.5
646.736	8.5
647.495	6.5
648.255	7.5
649.014	7.5
649.774	7.5
650.533	6.5
651.292	6.5
652.051	8.5
652.81	7.5
653.569	5.5
654.328	6.5
655.087	5.5
655.846	4.5
656.604	6.5
657.363	6.5
658.121	2.5
658.88	5.5
659.638	6.5
660.397	5.5
661.155	6.5
661.913	6.5
662.671	4.5
663.429	5.5
664.187	5.5
664.945	6.5
665.703	6.5
666.46	5.5
667.218	2.5
667.976	5.5
668.733	5.5
669.49	4.5
670.248	2.5
671.005	4.5
671.762	3.5
672.519	4.5
673.276	4.5
674.033	3.5
674.79	4.5
675.547	3.5
676.304	3.5
677.06	2.5
677.817	6.5
678.574	5.5
679.33	3.5
680.086	3.5
680.843	1.5
681.599	4.5
682.355	3.5
683.111	6.5
683.867	5.5
684.623	2.5
685.379	2.5
686.135	-0.5
686.89	4.5
687.646	3.5
688.402	3.5
689.157	3.5
689.912	6.5
690.668	3.5
691.423	3.5
692.178	1.5
692.933	1.5
693.688	2.5
694.443	4.5
695.198	3.5
695.953	3.5
696.708	3.5
697.462	3.5
698.217	3.5
698.972	4.5
699.726	2.5
700.48	2.5
701.235	3.5
701.989	4.5
702.743	4.5
703.497	3.5
704.251	5.5
705.005	2.5
705.759	3.5
706.513	1.5
707.266	2.5
708.02	5.5
708.774	2.5
709.527	1.5
710.28	3.5
711.034	3.5
711.787	5.5
712.54	3.5
713.293	5.5
714.046	2.5
714.799	6.5
715.552	2.5
716.305	3.5
717.058	3.5
717.81	4.5
718.563	4.5
719.315	2.5
720.068	4.5
720.82	1.5
721.573	3.5
722.325	5.5
723.077	2.5
723.829	3.5
724.581	1.5
725.333	6.5
726.085	3.5
726.836	1.5
727.588	3.5
728.34	6.5
729.091	2.5
729.843	3.5
730.594	4.5
731.346	2.5
732.097	3.5
732.848	3.5
733.599	3.5
734.35	4.5
735.101	5.5
735.852	1.5
736.603	7.5
737.354	4.5
738.104	3.5
738.855	5.5
739.605	4.5
740.356	5.5
741.106	5.5
741.856	6.5
742.607	3.5
743.357	6.5
744.107	5.5
744.857	4.5
745.607	5.5
746.357	4.5
747.106	1.5
747.856	3.5
748.606	5.5
749.355	4.5
750.105	6.5
750.854	6.5
751.603	1.5
752.353	6.5
753.102	5.5
753.851	4.5
754.6	5.5
755.349	7.5
756.098	5.5
756.847	4.5
757.595	4.5
758.344	4.5
759.093	5.5
759.841	8.5
760.589	5.5
761.338	7.5
762.086	6.5
762.834	5.5
763.582	8.5
764.331	7.5
765.079	7.5
765.826	6.5
766.574	5.5
767.322	5.5
768.07	7.5
768.817	7.5
769.565	7.5
770.312	7.5
771.06	7.5
771.807	6.5
772.554	7.5
773.302	7.5
774.049	7.5
774.796	6.5
775.543	10.5
776.29	5.5
777.036	9.5
777.783	8.5
778.53	6.5
779.276	9.5
780.023	10.5
780.769	9.5
781.516	11.5
782.262	9.5
783.008	8.5
783.754	7.5
784.5	9.5
785.246	9.5
785.992	7.5
786.738	9.5
787.484	7.5
788.23	9.5
788.975	7.5
789.721	8.5
790.466	7.5
791.212	7.5
791.957	9.5
792.702	7.5
793.447	8.5
794.193	9.5
794.938	8.5
795.683	5.5
796.427	9.5
797.172	6.5
797.917	5.5
798.662	6.5
799.406	7.5
800.151	6.5
800.895	7.5
801.64	6.5
802.384	8.5
803.128	5.5
803.872	3.5
804.616	7.5
805.36	9.5
806.104	6.5
806.848	5.5
807.592	5.5
808.336	5.5
809.079	5.5
809.823	5.5
810.566	5.5
811.31	5.5
812.053	5.5
812.796	5.5
813.539	5.5
814.283	5.5
815.026	6.5
815.769	4.5
816.511	5.5
817.254	5.5
817.997	5.5
818.74	6.5
819.482	5.5
820.225	5.5
820.967	5.5
821.71	5.5
822.452	4.5
823.194	4.5
823.936	4.5
824.678	2.5
825.42	4.5
826.162	3.5
826.904	5.5
827.646	5.5
828.388	4.5
829.129	5.5
829.871	5.5
830.612	3.5
831.354	4.5
832.095	3.5
832.836	2.5
833.577	1.5
834.319	4.5
835.06	4.5
835.801	4.5
836.542	1.5
837.282	2.5
838.023	4.5
838.764	1.5
839.504	1.5
840.245	4.5
840.985	2.5
841.726	3.5
842.466	1.5
843.206	3.5
843.946	2.5
844.687	4.5
845.427	2.5
846.166	1.5
846.906	2.5
847.646	4.5
848.386	0.5
849.125	1.5
849.865	3.5
850.605	1.5
851.344	3.5
852.083	2.5
852.823	3.5
853.562	5.5
854.301	1.5
855.04	2.5
855.779	1.5
856.518	-0.5
857.257	2.5
857.995	3.5
858.734	2.5
859.473	3.5
860.211	1.5
860.95	0.5
861.688	0.5
862.426	3.5
863.165	2.5
863.903	2.5
864.641	2.5
865.379	1.5
866.117	2.5
866.855	0.5
867.593	0.5
868.33	3.5
869.068	1.5
869.806	1.5
870.543	0.5
871.28	2.5
872.018	1.5
872.755	1.5
873.492	1.5
874.229	-0.5
874.967	-0.5
875.703	0.5
876.44	-0.5
877.177	2.5
877.914	2.5
878.651	1.5
879.387	-0.5
880.124	0.5
880.86	1.5
881.597	2.5
882.333	1.5
883.069	0.5
883.806	1.5
884.542	0.5
885.278	3.5
886.014	1.5
886.749	1.5
887.485	1.5
888.221	-1.5
888.957	2.5
889.692	0.5
890.428	-0.5
891.163	1.5
891.899	-0.5
892.634	2.5
893.369	-1.5
894.104	-0.5
894.839	1.5
895.574	0.5
896.309	-2.5
897.044	-0.5
897.779	2.5
898.514	-2.5
899.248	2.5
899.983	0.5
900.717	-0.5
901.452	-0.5
902.186	-3.5
902.92	1.5
903.654	-0.5
904.389	1.5
905.123	-0.5
905.857	1.5
906.59	-0.5
907.324	0.5
908.058	-2.5
908.792	0.5
909.525	2.5
910.259	0.5
910.992	-0.5
911.726	1.5
912.459	0.5
913.192	1.5
913.925	-0.5
914.658	-1.5
915.391	2.5
916.124	-1.5
916.857	-0.5
917.59	-0.5
918.323	0.5
919.055	-0.5
919.788	1.5
920.521	-1.5
921.253	0.5
921.985	0.5
922.718	-0.5
923.45	0.5
924.182	-2.5
924.914	-2.5
925.646	-0.5
926.378	-0.5
927.11	2.5
927.841	-0.5
928.573	0.5
929.305	0.5
930.036	1.5
930.768	0.5
931.499	1.5
932.23	0.5
932.962	-0.5
933.693	-2.5
934.424	-0.5
935.155	-1.5
935.886	-0.5
936.617	0.5
937.348	0.5
938.078	0.5
938.809	-0.5
939.54	2.5
940.27	1.5
941.001	-0.5
941.731	-0.5
942.461	0.5
943.191	0.5
943.922	-1.5
944.652	2.5
945.382	-0.5
946.112	-0.5
946.841	-0.5
947.571	0.5
948.301	-0.5
949.031	0.5
949.76	2.5
950.49	-0.5
951.219	-0.5
951.948	1.5
952.678	-0.5
953.407	-1.5
954.136	-0.5
954.865	-0.5
955.594	0.5
956.323	-0.5
957.052	-0.5
957.78	0.5
958.509	0.5
959.238	-0.5
959.966	-0.5
960.695	-1.5
961.423	0.5
962.151	1.5
962.88	0.5
963.608	-0.5
964.336	-1.5
965.064	0.5
965.792	1.5
966.52	-0.5
967.247	-0.5
967.975	-1.5
968.703	-0.5
969.43	0.5
970.158	-1.5
970.885	-0.5
971.613	0.5
972.34	0.5
973.067	0.5
973.794	-1.5
974.521	1.5
975.248	-0.5
975.975	-0.5
976.702	-0.5
977.429	0.5
978.156	0.5
978.882	-0.5
979.609	0.5
980.335	-0.5
981.062	-1.5
981.788	-0.5
982.514	-0.5
983.24	0.5
983.967	-0.5
984.693	-1.5
985.419	1.5
986.144	-0.5
986.87	-1.5
987.596	-1.5
988.322	1.5
989.047	-0.5
989.773	-0.5
990.498	0.5
991.224	1.5
991.949	0.5
992.674	-2.5
993.399	0.5
994.124	-1.5
994.849	-0.5
995.574	-0.5
996.299	-0.5
997.024	0.5
997.749	-2.5
998.473	0.5
999.198	0.5
999.922	-0.5
1000.647	1.5
1001.371	2.5
1002.095	-1.5
1002.82	0.5
1003.544	-1.5
1004.268	1.5
1004.992	-0.5
1005.716	-0.5
1006.439	-1.5
1007.163	0.5
1007.887	0.5
1008.611	0.5
1009.334	1.5
1010.058	-1.5
1010.781	2.5
1011.504	-0.5
1012.228	-1.5
1012.951	0.5
1013.674	-0.5
1014.397	0.5
1015.12	-0.5
