节点500_285_QEPB04081__484__15-03-36-438.txt的数据

Date: Wed Nov 12 15:03:36 CST 2025
User: PC
Spectrometer: QEPB0408
触发模式: 0
积分时间 (秒): 1.000000E-2
Scans to average: 1
启用暗噪声校正: true
启用非线性校正: false
滑动平均宽度: 0
X轴模式: Wavelengths
Number of Pixels in Spectrum: 1044
>>>>>Begin Spectral Data<<<<<
220.843	3.25
221.644	1.25
222.444	1.25
223.244	4.25
224.045	1.25
224.845	4.25
225.645	2.25
226.445	3.25
227.245	2.25
228.045	0.25
228.845	2.25
229.645	3.25
230.444	4.25
231.244	2.25
232.043	4.25
232.843	2.25
233.642	3.25
234.442	4.25
235.241	4.25
236.04	3.25
236.839	2.25
237.638	3.25
238.437	5.25
239.236	6.25
240.035	5.25
240.833	4.25
241.632	5.25
242.43	6.25
243.229	2.25
244.027	6.25
244.826	3.25
245.624	6.25
246.422	5.25
247.22	5.25
248.018	7.25
248.816	7.25
249.614	7.25
250.412	5.25
251.21	6.25
252.007	6.25
252.805	8.25
253.602	6.25
254.4	4.25
255.197	9.25
255.994	10.25
256.791	10.25
257.589	6.25
258.386	9.25
259.183	9.25
259.979	12.25
260.776	11.25
261.573	11.25
262.37	8.25
263.166	9.25
263.963	11.25
264.759	15.25
265.556	12.25
266.352	14.25
267.148	12.25
267.944	16.25
268.74	16.25
269.536	15.25
270.332	14.25
271.128	14.25
271.924	14.25
272.719	17.25
273.515	13.25
274.311	17.25
275.106	15.25
275.901	20.25
276.697	20.25
277.492	18.25
278.287	21.25
279.082	19.25
279.877	20.25
280.672	21.25
281.467	16.25
282.262	18.25
283.056	17.25
283.851	18.25
284.646	19.25
285.44	18.25
286.234	20.25
287.029	19.25
287.823	20.25
288.617	19.25
289.411	17.25
290.205	16.25
290.999	21.25
291.793	19.25
292.587	20.25
293.381	16.25
294.174	16.25
294.968	17.25
295.761	14.25
296.555	17.25
297.348	14.25
298.141	15.25
298.935	17.25
299.728	16.25
300.521	16.25
301.314	12.25
302.107	14.25
302.899	14.25
303.692	13.25
304.485	14.25
305.277	12.25
306.07	11.25
306.862	15.25
307.655	15.25
308.447	12.25
309.239	11.25
310.031	12.25
310.823	10.25
311.615	9.25
312.407	9.25
313.199	11.25
313.991	10.25
314.783	10.25
315.574	9.25
316.366	9.25
317.157	11.25
317.949	7.25
318.74	6.25
319.531	10.25
320.322	8.25
321.113	10.25
321.904	10.25
322.695	9.25
323.486	7.25
324.277	6.25
325.068	8.25
325.858	9.25
326.649	8.25
327.439	8.25
328.23	6.25
329.02	8.25
329.81	6.25
330.6	7.25
331.391	8.25
332.181	6.25
332.971	7.25
333.76	5.25
334.55	6.25
335.34	6.25
336.13	6.25
336.919	7.25
337.709	7.25
338.498	8.25
339.287	4.25
340.077	8.25
340.866	8.25
341.655	8.25
342.444	7.25
343.233	7.25
344.022	7.25
344.811	5.25
345.6	7.25
346.388	7.25
347.177	5.25
347.965	10.25
348.754	5.25
349.542	9.25
350.33	5.25
351.119	7.25
351.907	5.25
352.695	5.25
353.483	7.25
354.271	4.25
355.059	5.25
355.846	7.25
356.634	5.25
357.422	6.25
358.209	6.25
358.997	2.25
359.784	6.25
360.571	7.25
361.359	7.25
362.146	8.25
362.933	7.25
363.72	4.25
364.507	5.25
365.294	5.25
366.081	7.25
366.867	6.25
367.654	5.25
368.44	5.25
369.227	4.25
370.013	5.25
370.8	3.25
371.586	7.25
372.372	5.25
373.158	5.25
373.944	6.25
374.73	2.25
375.516	5.25
376.302	7.25
377.088	5.25
377.873	4.25
378.659	6.25
379.445	5.25
380.23	5.25
381.015	7.25
381.801	6.25
382.586	5.25
383.371	6.25
384.156	5.25
384.941	6.25
385.726	6.25
386.511	5.25
387.296	7.25
388.08	5.25
388.865	10.25
389.649	5.25
390.434	4.25
391.218	7.25
392.003	6.25
392.787	9.25
393.571	6.25
394.355	7.25
395.139	5.25
395.923	8.25
396.707	8.25
397.491	7.25
398.274	7.25
399.058	5.25
399.842	7.25
400.625	6.25
401.408	8.25
402.192	9.25
402.975	7.25
403.758	7.25
404.541	5.25
405.324	8.25
406.107	8.25
406.89	8.25
407.673	7.25
408.456	7.25
409.238	7.25
410.021	7.25
410.803	10.25
411.586	9.25
412.368	9.25
413.151	9.25
413.933	9.25
414.715	10.25
415.497	9.25
416.279	10.25
417.061	10.25
417.843	10.25
418.624	9.25
419.406	10.25
420.188	10.25
420.969	9.25
421.751	11.25
422.532	12.25
423.313	11.25
424.095	10.25
424.876	10.25
425.657	12.25
426.438	14.25
427.219	11.25
428	13.25
428.78	14.25
429.561	15.25
430.342	14.25
431.122	13.25
431.903	15.25
432.683	16.25
433.464	16.25
434.244	16.25
435.024	17.25
435.804	18.25
436.584	18.25
437.364	19.25
438.144	21.25
438.924	21.25
439.704	20.25
440.483	22.25
441.263	21.25
442.042	24.25
442.822	23.25
443.601	29.25
444.38	30.25
445.16	32.25
445.939	32.25
446.718	37.25
447.497	39.25
448.276	41.25
449.054	45.25
449.833	52.25
450.612	49.25
451.391	62.25
452.169	62.25
452.948	66.25
453.726	75.25
454.504	86.25
455.282	91.25
456.061	99.25
456.839	114.25
457.617	122.25
458.395	142.25
459.172	156.25
459.95	175.25
460.728	193.25
461.506	219.25
462.283	237.25
463.061	272.25
463.838	293.25
464.615	332.25
465.393	374.25
466.17	409.25
466.947	459.25
467.724	510.25
468.501	570.25
469.278	631.25
470.055	699.25
470.831	771.25
471.608	874.25
472.385	958.25
473.161	1069.25
473.938	1192.25
474.714	1294.25
475.49	1448.25
476.266	1576.25
477.043	1750.25
477.819	1958.25
478.595	2148.25
479.371	2362.25
480.146	2595.25
480.922	2857.25
481.698	3114.25
482.473	3439.25
483.249	3759.25
484.024	4133.25
484.8	4551.25
485.575	4990.25
486.35	5481.25
487.126	5995.25
487.901	6561.25
488.676	7167.25
489.451	7845.25
490.225	8610.25
491	9360.25
491.775	10187.25
492.55	11067.25
493.324	11990.25
494.099	12915.25
494.873	13912.25
495.647	15018.25
496.422	16112.25
497.196	17198.25
497.97	18330.25
498.744	19545.25
499.518	20687.25
500.292	21790.25
501.066	22870.25
501.839	23757.25
502.613	24718.25
503.387	25554.25
504.16	26108.25
504.934	26555.25
505.707	26723.25
506.48	26901.25
507.253	26945.25
508.027	26674.25
508.8	26449.25
509.573	26055.25
510.346	25495.25
511.118	24841.25
511.891	24112.25
512.664	23340.25
513.437	22482.25
514.209	21644.25
514.982	20733.25
515.754	19838.25
516.526	19014.25
517.298	18113.25
518.071	17335.25
518.843	16696.25
519.615	16085.25
520.387	15404.25
521.159	14844.25
521.93	14230.25
522.702	13679.25
523.474	13117.25
524.245	12530.25
525.017	11980.25
525.788	11556.25
526.56	11047.25
527.331	10502.25
528.102	10097.25
528.873	9600.25
529.644	9140.25
530.415	8703.25
531.186	8232.25
531.957	7850.25
532.728	7443.25
533.498	7069.25
534.269	6660.25
535.039	6334.25
535.81	5972.25
536.58	5626.25
537.351	5322.25
538.121	5040.25
538.891	4743.25
539.661	4531.25
540.431	4251.25
541.201	4039.25
541.971	3778.25
542.741	3602.25
543.51	3424.25
544.28	3273.25
545.05	3099.25
545.819	2949.25
546.588	2802.25
547.358	2665.25
548.127	2526.25
548.896	2406.25
549.665	2300.25
550.434	2156.25
551.203	2058.25
551.972	1938.25
552.741	1828.25
553.51	1737.25
554.278	1643.25
555.047	1547.25
555.815	1441.25
556.584	1381.25
557.352	1319.25
558.121	1239.25
558.889	1152.25
559.657	1085.25
560.425	1022.25
561.193	979.25
561.961	919.25
562.729	871.25
563.496	822.25
564.264	785.25
565.032	740.25
565.799	689.25
566.567	654.25
567.334	622.25
568.101	590.25
568.869	553.25
569.636	519.25
570.403	485.25
571.17	466.25
571.937	436.25
572.704	403.25
573.471	395.25
574.237	375.25
575.004	349.25
575.771	322.25
576.537	309.25
577.303	289.25
578.07	269.25
578.836	259.25
579.602	238.25
580.368	226.25
581.134	220.25
581.9	203.25
582.666	193.25
583.432	184.25
584.198	177.25
584.964	167.25
585.729	153.25
586.495	152.25
587.26	146.25
588.025	134.25
588.791	124.25
589.556	117.25
590.321	117.25
591.086	108.25
591.851	102.25
592.616	97.25
593.381	93.25
594.146	87.25
594.911	82.25
595.675	80.25
596.44	75.25
597.204	74.25
597.969	68.25
598.733	65.25
599.497	70.25
600.261	60.25
601.025	59.25
601.79	55.25
602.553	55.25
603.317	48.25
604.081	48.25
604.845	46.25
605.609	44.25
606.372	43.25
607.136	41.25
607.899	40.25
608.662	35.25
609.426	36.25
610.189	34.25
610.952	32.25
611.715	35.25
612.478	32.25
613.241	32.25
614.004	29.25
614.767	27.25
615.529	28.25
616.292	27.25
617.055	26.25
617.817	21.25
618.579	23.25
619.342	21.25
620.104	21.25
620.866	23.25
621.628	21.25
622.39	20.25
623.152	19.25
623.914	18.25
624.676	19.25
625.438	18.25
626.199	18.25
626.961	16.25
627.722	18.25
628.484	15.25
629.245	14.25
630.006	18.25
630.768	13.25
631.529	12.25
632.29	13.25
633.051	13.25
633.812	14.25
634.573	14.25
635.333	12.25
636.094	11.25
636.855	10.25
637.615	10.25
638.376	10.25
639.136	9.25
639.896	7.25
640.657	9.25
641.417	11.25
642.177	9.25
642.937	11.25
643.697	9.25
644.457	7.25
645.216	9.25
645.976	11.25
646.736	9.25
647.495	5.25
648.255	8.25
649.014	7.25
649.774	6.25
650.533	8.25
651.292	6.25
652.051	7.25
652.81	8.25
653.569	6.25
654.328	5.25
655.087	6.25
655.846	5.25
656.604	7.25
657.363	6.25
658.121	5.25
658.88	8.25
659.638	7.25
660.397	7.25
661.155	7.25
661.913	7.25
662.671	6.25
663.429	6.25
664.187	5.25
664.945	5.25
665.703	7.25
666.46	4.25
667.218	5.25
667.976	6.25
668.733	2.25
669.49	4.25
670.248	7.25
671.005	5.25
671.762	4.25
672.519	5.25
673.276	5.25
674.033	2.25
674.79	5.25
675.547	3.25
676.304	3.25
677.06	6.25
677.817	3.25
678.574	3.25
679.33	4.25
680.086	6.25
680.843	2.25
681.599	5.25
682.355	5.25
683.111	5.25
683.867	5.25
684.623	4.25
685.379	7.25
686.135	3.25
686.89	4.25
687.646	4.25
688.402	4.25
689.157	3.25
689.912	4.25
690.668	5.25
691.423	5.25
692.178	4.25
692.933	5.25
693.688	3.25
694.443	5.25
695.198	4.25
695.953	3.25
696.708	3.25
697.462	5.25
698.217	5.25
698.972	1.25
699.726	8.25
700.48	4.25
701.235	2.25
701.989	5.25
702.743	2.25
703.497	3.25
704.251	4.25
705.005	4.25
705.759	4.25
706.513	3.25
707.266	2.25
708.02	3.25
708.774	3.25
709.527	2.25
710.28	2.25
711.034	2.25
711.787	2.25
712.54	4.25
713.293	2.25
714.046	1.25
714.799	4.25
715.552	5.25
716.305	3.25
717.058	5.25
717.81	4.25
718.563	4.25
719.315	5.25
720.068	2.25
720.82	3.25
721.573	3.25
722.325	2.25
723.077	5.25
723.829	4.25
724.581	4.25
725.333	2.25
726.085	5.25
726.836	4.25
727.588	3.25
728.34	4.25
729.091	5.25
729.843	6.25
730.594	2.25
731.346	4.25
732.097	4.25
732.848	5.25
733.599	3.25
734.35	3.25
735.101	5.25
735.852	2.25
736.603	4.25
737.354	5.25
738.104	6.25
738.855	3.25
739.605	5.25
740.356	7.25
741.106	3.25
741.856	5.25
742.607	5.25
743.357	5.25
744.107	4.25
744.857	5.25
745.607	1.25
746.357	3.25
747.106	5.25
747.856	5.25
748.606	5.25
749.355	5.25
750.105	7.25
750.854	6.25
751.603	6.25
752.353	5.25
753.102	6.25
753.851	7.25
754.6	5.25
755.349	5.25
756.098	5.25
756.847	5.25
757.595	6.25
758.344	7.25
759.093	5.25
759.841	4.25
760.589	6.25
761.338	6.25
762.086	8.25
762.834	2.25
763.582	6.25
764.331	6.25
765.079	7.25
765.826	7.25
766.574	9.25
767.322	8.25
768.07	5.25
768.817	8.25
769.565	9.25
770.312	6.25
771.06	10.25
771.807	9.25
772.554	9.25
773.302	8.25
774.049	8.25
774.796	7.25
775.543	7.25
776.29	8.25
777.036	8.25
777.783	7.25
778.53	9.25
779.276	7.25
780.023	8.25
780.769	7.25
781.516	9.25
782.262	7.25
783.008	7.25
783.754	6.25
784.5	8.25
785.246	9.25
785.992	11.25
786.738	7.25
787.484	9.25
788.23	6.25
788.975	11.25
789.721	6.25
790.466	10.25
791.212	8.25
791.957	8.25
792.702	8.25
793.447	9.25
794.193	6.25
794.938	9.25
795.683	6.25
796.427	8.25
797.172	7.25
797.917	7.25
798.662	7.25
799.406	7.25
800.151	6.25
800.895	9.25
801.64	7.25
802.384	8.25
803.128	6.25
803.872	8.25
804.616	7.25
805.36	8.25
806.104	5.25
806.848	6.25
807.592	6.25
808.336	6.25
809.079	4.25
809.823	7.25
810.566	6.25
811.31	5.25
812.053	5.25
812.796	2.25
813.539	7.25
814.283	5.25
815.026	6.25
815.769	7.25
816.511	6.25
817.254	4.25
817.997	5.25
818.74	7.25
819.482	4.25
820.225	4.25
820.967	5.25
821.71	2.25
822.452	5.25
823.194	5.25
823.936	5.25
824.678	5.25
825.42	5.25
826.162	4.25
826.904	4.25
827.646	4.25
828.388	4.25
829.129	4.25
829.871	2.25
830.612	2.25
831.354	4.25
832.095	4.25
832.836	5.25
833.577	3.25
834.319	3.25
835.06	5.25
835.801	2.25
836.542	4.25
837.282	2.25
838.023	5.25
838.764	5.25
839.504	4.25
840.245	5.25
840.985	2.25
841.726	3.25
842.466	3.25
843.206	5.25
843.946	4.25
844.687	3.25
845.427	4.25
846.166	2.25
846.906	3.25
847.646	4.25
848.386	4.25
849.125	3.25
849.865	1.25
850.605	4.25
851.344	4.25
852.083	4.25
852.823	2.25
853.562	4.25
854.301	2.25
855.04	2.25
855.779	3.25
856.518	0.25
857.257	2.25
857.995	2.25
858.734	3.25
859.473	4.25
860.211	1.25
860.95	3.25
861.688	3.25
862.426	3.25
863.165	3.25
863.903	1.25
864.641	3.25
865.379	2.25
866.117	2.25
866.855	3.25
867.593	3.25
868.33	3.25
869.068	2.25
869.806	0.25
870.543	1.25
871.28	3.25
872.018	5.25
872.755	2.25
873.492	3.25
874.229	1.25
874.967	0.25
875.703	0.25
876.44	2.25
877.177	0.25
877.914	-1.75
878.651	2.25
879.387	2.25
880.124	1.25
880.86	2.25
881.597	3.25
882.333	3.25
883.069	2.25
883.806	2.25
884.542	-1.75
885.278	0.25
886.014	1.25
886.749	1.25
887.485	0.25
888.221	-1.75
888.957	1.25
889.692	4.25
890.428	0.25
891.163	2.25
891.899	2.25
892.634	2.25
893.369	-0.75
894.104	1.25
894.839	2.25
895.574	-0.75
896.309	1.25
897.044	1.25
897.779	1.25
898.514	1.25
899.248	1.25
899.983	-0.75
900.717	-0.75
901.452	0.25
902.186	-0.75
902.92	1.25
903.654	-1.75
904.389	1.25
905.123	3.25
905.857	1.25
906.59	1.25
907.324	1.25
908.058	-0.75
908.792	1.25
909.525	0.25
910.259	1.25
910.992	-1.75
911.726	1.25
912.459	-1.75
913.192	1.25
913.925	3.25
914.658	0.25
915.391	2.25
916.124	-0.75
916.857	0.25
917.59	2.25
918.323	0.25
919.055	1.25
919.788	0.25
920.521	1.25
921.253	1.25
921.985	2.25
922.718	2.25
923.45	-0.75
924.182	1.25
924.914	0.25
925.646	1.25
926.378	2.25
927.11	0.25
927.841	0.25
928.573	1.25
929.305	-0.75
930.036	0.25
930.768	0.25
931.499	1.25
932.23	2.25
932.962	0.25
933.693	-1.75
934.424	-0.75
935.155	0.25
935.886	1.25
936.617	1.25
937.348	1.25
938.078	1.25
938.809	-0.75
939.54	0.25
940.27	-0.75
941.001	1.25
941.731	1.25
942.461	0.25
943.191	1.25
943.922	-0.75
944.652	1.25
945.382	-1.75
946.112	-0.75
946.841	1.25
947.571	2.25
948.301	0.25
949.031	0.25
949.76	1.25
950.49	0.25
951.219	1.25
951.948	2.25
952.678	1.25
953.407	0.25
954.136	0.25
954.865	2.25
955.594	-0.75
956.323	-1.75
957.052	0.25
957.78	-0.75
958.509	-0.75
959.238	0.25
959.966	0.25
960.695	2.25
961.423	0.25
962.151	0.25
962.88	2.25
963.608	-0.75
964.336	2.25
965.064	-1.75
965.792	0.25
966.52	1.25
967.247	2.25
967.975	1.25
968.703	1.25
969.43	0.25
970.158	0.25
970.885	0.25
971.613	0.25
972.34	0.25
973.067	1.25
973.794	1.25
974.521	1.25
975.248	-0.75
975.975	1.25
976.702	-0.75
977.429	1.25
978.156	-0.75
978.882	0.25
979.609	2.25
980.335	1.25
981.062	-0.75
981.788	2.25
982.514	1.25
983.24	1.25
983.967	0.25
984.693	1.25
985.419	-0.75
986.144	0.25
986.87	-0.75
987.596	1.25
988.322	2.25
989.047	1.25
989.773	-0.75
990.498	1.25
991.224	0.25
991.949	2.25
992.674	1.25
993.399	1.25
994.124	-0.75
994.849	3.25
995.574	-0.75
996.299	2.25
997.024	-0.75
997.749	0.25
998.473	0.25
999.198	-0.75
999.922	-0.75
1000.647	-0.75
1001.371	2.25
1002.095	-0.75
1002.82	1.25
1003.544	-1.75
1004.268	1.25
1004.992	0.25
1005.716	0.25
1006.439	2.25
1007.163	2.25
1007.887	0.25
1008.611	1.25
1009.334	3.25
1010.058	0.25
1010.781	1.25
1011.504	0.25
1012.228	1.25
1012.951	0.25
1013.674	-0.75
1014.397	0.25
1015.12	-0.75
