节点500_285_QEPB04081__313__15-00-45-750.txt的数据

Date: Wed Nov 12 15:00:45 CST 2025
User: PC
Spectrometer: QEPB0408
触发模式: 0
积分时间 (秒): 1.000000E-2
Scans to average: 1
启用暗噪声校正: true
启用非线性校正: false
滑动平均宽度: 0
X轴模式: Wavelengths
Number of Pixels in Spectrum: 1044
>>>>>Begin Spectral Data<<<<<
220.843	2
221.644	0
222.444	3
223.244	2
224.045	2
224.845	0
225.645	2
226.445	2
227.245	4
228.045	5
228.845	1
229.645	3
230.444	2
231.244	3
232.043	2
232.843	2
233.642	4
234.442	3
235.241	3
236.04	5
236.839	2
237.638	5
238.437	5
239.236	5
240.035	5
240.833	6
241.632	5
242.43	5
243.229	7
244.027	4
244.826	7
245.624	6
246.422	6
247.22	5
248.018	5
248.816	6
249.614	6
250.412	7
251.21	8
252.007	8
252.805	9
253.602	6
254.4	7
255.197	9
255.994	9
256.791	8
257.589	8
258.386	10
259.183	9
259.979	11
260.776	9
261.573	13
262.37	8
263.166	12
263.963	12
264.759	12
265.556	14
266.352	11
267.148	15
267.944	15
268.74	15
269.536	14
270.332	14
271.128	16
271.924	16
272.719	17
273.515	16
274.311	15
275.106	18
275.901	17
276.697	18
277.492	18
278.287	18
279.082	20
279.877	18
280.672	20
281.467	20
282.262	18
283.056	19
283.851	19
284.646	18
285.44	20
286.234	19
287.029	20
287.823	18
288.617	21
289.411	19
290.205	20
290.999	19
291.793	19
292.587	21
293.381	15
294.174	22
294.968	18
295.761	16
296.555	16
297.348	14
298.141	13
298.935	16
299.728	14
300.521	13
301.314	16
302.107	14
302.899	13
303.692	14
304.485	13
305.277	12
306.07	14
306.862	14
307.655	13
308.447	13
309.239	12
310.031	12
310.823	12
311.615	12
312.407	8
313.199	9
313.991	13
314.783	12
315.574	10
316.366	10
317.157	9
317.949	6
318.74	9
319.531	9
320.322	8
321.113	8
321.904	8
322.695	9
323.486	10
324.277	8
325.068	7
325.858	7
326.649	6
327.439	9
328.23	9
329.02	7
329.81	8
330.6	7
331.391	6
332.181	8
332.971	8
333.76	7
334.55	7
335.34	9
336.13	7
336.919	7
337.709	7
338.498	5
339.287	6
340.077	7
340.866	4
341.655	7
342.444	6
343.233	5
344.022	7
344.811	5
345.6	7
346.388	8
347.177	7
347.965	7
348.754	7
349.542	7
350.33	6
351.119	8
351.907	5
352.695	7
353.483	6
354.271	7
355.059	8
355.846	6
356.634	7
357.422	7
358.209	7
358.997	6
359.784	6
360.571	8
361.359	6
362.146	5
362.933	7
363.72	7
364.507	5
365.294	5
366.081	6
366.867	6
367.654	6
368.44	5
369.227	5
370.013	7
370.8	5
371.586	4
372.372	6
373.158	6
373.944	6
374.73	4
375.516	4
376.302	7
377.088	5
377.873	4
378.659	5
379.445	6
380.23	5
381.015	6
381.801	3
382.586	5
383.371	5
384.156	5
384.941	5
385.726	5
386.511	7
387.296	6
388.08	6
388.865	6
389.649	6
390.434	8
391.218	5
392.003	6
392.787	8
393.571	7
394.355	4
395.139	6
395.923	7
396.707	7
397.491	7
398.274	7
399.058	7
399.842	7
400.625	8
401.408	7
402.192	8
402.975	12
403.758	7
404.541	6
405.324	7
406.107	5
406.89	7
407.673	8
408.456	9
409.238	8
410.021	8
410.803	9
411.586	10
412.368	8
413.151	9
413.933	8
414.715	9
415.497	8
416.279	12
417.061	9
417.843	9
418.624	9
419.406	10
420.188	10
420.969	12
421.751	13
422.532	10
423.313	11
424.095	14
424.876	11
425.657	11
426.438	16
427.219	13
428	14
428.78	13
429.561	13
430.342	12
431.122	15
431.903	14
432.683	14
433.464	17
434.244	18
435.024	18
435.804	17
436.584	19
437.364	21
438.144	19
438.924	21
439.704	22
440.483	24
441.263	23
442.042	25
442.822	26
443.601	27
444.38	30
445.16	34
445.939	30
446.718	37
447.497	38
448.276	42
449.054	42
449.833	49
450.612	52
451.391	56
452.169	67
452.948	64
453.726	72
454.504	77
455.282	92
456.061	98
456.839	110
457.617	123
458.395	134
459.172	150
459.95	169
460.728	185
461.506	204
462.283	231
463.061	253
463.838	285
464.615	323
465.393	360
466.17	401
466.947	446
467.724	504
468.501	549
469.278	613
470.055	694
470.831	757
471.608	847
472.385	939
473.161	1052
473.938	1166
474.714	1264
475.49	1419
476.266	1585
477.043	1726
477.819	1930
478.595	2125
479.371	2347
480.146	2592
480.922	2874
481.698	3146
482.473	3498
483.249	3836
484.024	4231
484.8	4652
485.575	5090
486.35	5642
487.126	6175
487.901	6760
488.676	7402
489.451	8111
490.225	8895
491	9741
491.775	10635
492.55	11554
493.324	12508
494.099	13498
494.873	14544
495.647	15719
496.422	16862
497.196	18065
497.97	19238
498.744	20433
499.518	21658
500.292	22765
501.066	23887
501.839	24822
502.613	25800
503.387	26577
504.16	27146
504.934	27502
505.707	27568
506.48	27691
507.253	27501
508.027	27262
508.8	26963
509.573	26522
510.346	25861
511.118	25032
511.891	24227
512.664	23397
513.437	22477
514.209	21461
514.982	20675
515.754	19734
516.526	18867
517.298	18052
518.071	17248
518.843	16592
519.615	15979
520.387	15361
521.159	14686
521.93	14085
522.702	13587
523.474	13019
524.245	12432
525.017	11891
525.788	11444
526.56	10908
527.331	10402
528.102	9968
528.873	9485
529.644	8993
530.415	8590
531.186	8105
531.957	7699
532.728	7326
533.498	6930
534.269	6514
535.039	6186
535.81	5853
536.58	5500
537.351	5202
538.121	4894
538.891	4657
539.661	4398
540.431	4147
541.201	3900
541.971	3712
542.741	3531
543.51	3356
544.28	3181
545.05	3031
545.819	2908
546.588	2729
547.358	2604
548.127	2459
548.896	2356
549.665	2228
550.434	2099
551.203	2000
551.972	1882
552.741	1778
553.51	1672
554.278	1598
555.047	1492
555.815	1419
556.584	1328
557.352	1278
558.121	1202
558.889	1128
559.657	1066
560.425	1004
561.193	962
561.961	895
562.729	844
563.496	808
564.264	751
565.032	709
565.799	679
566.567	636
567.334	612
568.101	572
568.869	536
569.636	512
570.403	476
571.17	451
571.937	421
572.704	401
573.471	380
574.237	353
575.004	335
575.771	316
576.537	289
577.303	282
578.07	264
578.836	254
579.602	232
580.368	217
581.134	218
581.9	199
582.666	182
583.432	174
584.198	170
584.964	163
585.729	157
586.495	142
587.26	134
588.025	132
588.791	130
589.556	115
590.321	113
591.086	104
591.851	99
592.616	92
593.381	90
594.146	89
594.911	83
595.675	78
596.44	77
597.204	69
597.969	65
598.733	62
599.497	64
600.261	61
601.025	55
601.79	53
602.553	54
603.317	50
604.081	47
604.845	46
605.609	41
606.372	40
607.136	43
607.899	40
608.662	37
609.426	37
610.189	37
610.952	31
611.715	35
612.478	32
613.241	27
614.004	30
614.767	27
615.529	24
616.292	25
617.055	23
617.817	21
618.579	26
619.342	22
620.104	22
620.866	22
621.628	25
622.39	19
623.152	21
623.914	19
624.676	18
625.438	19
626.199	16
626.961	15
627.722	15
628.484	14
629.245	17
630.006	16
630.768	14
631.529	15
632.29	12
633.051	10
633.812	14
634.573	12
635.333	14
636.094	12
636.855	10
637.615	12
638.376	9
639.136	11
639.896	10
640.657	12
641.417	7
642.177	9
642.937	10
643.697	11
644.457	9
645.216	8
645.976	7
646.736	10
647.495	9
648.255	9
649.014	5
649.774	9
650.533	9
651.292	9
652.051	8
652.81	6
653.569	8
654.328	6
655.087	8
655.846	8
656.604	7
657.363	6
658.121	6
658.88	7
659.638	6
660.397	8
661.155	5
661.913	5
662.671	4
663.429	6
664.187	6
664.945	4
665.703	4
666.46	6
667.218	5
667.976	4
668.733	6
669.49	9
670.248	5
671.005	4
671.762	5
672.519	7
673.276	7
674.033	5
674.79	4
675.547	6
676.304	4
677.06	5
677.817	5
678.574	7
679.33	3
680.086	2
680.843	4
681.599	6
682.355	7
683.111	5
683.867	4
684.623	5
685.379	3
686.135	5
686.89	5
687.646	5
688.402	5
689.157	4
689.912	7
690.668	4
691.423	4
692.178	4
692.933	4
693.688	4
694.443	5
695.198	5
695.953	3
696.708	5
697.462	4
698.217	2
698.972	4
699.726	2
700.48	5
701.235	3
701.989	2
702.743	4
703.497	2
704.251	3
705.005	6
705.759	4
706.513	2
707.266	4
708.02	4
708.774	5
709.527	2
710.28	4
711.034	6
711.787	4
712.54	3
713.293	6
714.046	5
714.799	5
715.552	2
716.305	5
717.058	5
717.81	6
718.563	4
719.315	4
720.068	7
720.82	3
721.573	5
722.325	4
723.077	4
723.829	4
724.581	4
725.333	4
726.085	4
726.836	4
727.588	3
728.34	3
729.091	2
729.843	3
730.594	5
731.346	5
732.097	2
732.848	7
733.599	5
734.35	3
735.101	3
735.852	4
736.603	6
737.354	3
738.104	5
738.855	8
739.605	7
740.356	6
741.106	5
741.856	6
742.607	5
743.357	3
744.107	6
744.857	4
745.607	6
746.357	7
747.106	4
747.856	5
748.606	8
749.355	5
750.105	7
750.854	5
751.603	4
752.353	4
753.102	8
753.851	5
754.6	4
755.349	5
756.098	8
756.847	5
757.595	5
758.344	7
759.093	7
759.841	6
760.589	6
761.338	7
762.086	6
762.834	8
763.582	6
764.331	7
765.079	9
765.826	7
766.574	6
767.322	5
768.07	9
768.817	9
769.565	6
770.312	8
771.06	6
771.807	8
772.554	9
773.302	9
774.049	6
774.796	6
775.543	9
776.29	8
777.036	10
777.783	8
778.53	10
779.276	9
780.023	8
780.769	10
781.516	11
782.262	10
783.008	8
783.754	10
784.5	7
785.246	9
785.992	10
786.738	8
787.484	8
788.23	11
788.975	9
789.721	11
790.466	9
791.212	10
791.957	8
792.702	9
793.447	9
794.193	7
794.938	10
795.683	9
796.427	8
797.172	10
797.917	6
798.662	9
799.406	8
800.151	8
800.895	8
801.64	7
802.384	8
803.128	4
803.872	9
804.616	6
805.36	7
806.104	7
806.848	5
807.592	6
808.336	5
809.079	8
809.823	9
810.566	6
811.31	7
812.053	3
812.796	8
813.539	4
814.283	4
815.026	5
815.769	6
816.511	6
817.254	5
817.997	5
818.74	3
819.482	5
820.225	6
820.967	5
821.71	5
822.452	3
823.194	6
823.936	5
824.678	4
825.42	4
826.162	5
826.904	5
827.646	6
828.388	5
829.129	4
829.871	3
830.612	6
831.354	3
832.095	3
832.836	5
833.577	4
834.319	2
835.06	4
835.801	4
836.542	4
837.282	7
838.023	2
838.764	3
839.504	6
840.245	2
840.985	5
841.726	2
842.466	5
843.206	4
843.946	2
844.687	2
845.427	2
846.166	4
846.906	4
847.646	3
848.386	3
849.125	4
849.865	4
850.605	2
851.344	3
852.083	2
852.823	4
853.562	4
854.301	4
855.04	2
855.779	2
856.518	4
857.257	4
857.995	3
858.734	2
859.473	3
860.211	1
860.95	5
861.688	2
862.426	2
863.165	2
863.903	1
864.641	1
865.379	3
866.117	1
866.855	3
867.593	3
868.33	2
869.068	2
869.806	0
870.543	2
871.28	2
872.018	1
872.755	2
873.492	1
874.229	2
874.967	3
875.703	2
876.44	3
877.177	1
877.914	3
878.651	0
879.387	2
880.124	1
880.86	1
881.597	3
882.333	1
883.069	5
883.806	2
884.542	3
885.278	1
886.014	1
886.749	2
887.485	1
888.221	2
888.957	1
889.692	2
890.428	2
891.163	2
891.899	1
892.634	0
893.369	0
894.104	0
894.839	2
895.574	1
896.309	2
897.044	1
897.779	2
898.514	2
899.248	2
899.983	-1
900.717	1
901.452	1
902.186	2
902.92	0
903.654	1
904.389	0
905.123	0
905.857	1
906.59	2
907.324	2
908.058	1
908.792	0
909.525	2
910.259	0
910.992	3
911.726	1
912.459	2
913.192	1
913.925	0
914.658	0
915.391	1
916.124	1
916.857	-1
917.59	0
918.323	1
919.055	-2
919.788	2
920.521	-1
921.253	1
921.985	0
922.718	0
923.45	1
924.182	0
924.914	2
925.646	2
926.378	1
927.11	0
927.841	-1
928.573	0
929.305	1
930.036	0
930.768	1
931.499	-2
932.23	2
932.962	-2
933.693	2
934.424	2
935.155	0
935.886	-1
936.617	-1
937.348	0
938.078	-1
938.809	2
939.54	0
940.27	-1
941.001	0
941.731	1
942.461	1
943.191	0
943.922	1
944.652	0
945.382	1
946.112	2
946.841	0
947.571	1
948.301	0
949.031	1
949.76	2
950.49	0
951.219	2
951.948	-2
952.678	1
953.407	5
954.136	1
954.865	0
955.594	2
956.323	2
957.052	0
957.78	1
958.509	-1
959.238	-1
959.966	-1
960.695	1
961.423	2
962.151	2
962.88	0
963.608	2
964.336	1
965.064	0
965.792	-1
966.52	0
967.247	2
967.975	-1
968.703	3
969.43	3
970.158	0
970.885	1
971.613	1
972.34	-1
973.067	-1
973.794	2
974.521	2
975.248	1
975.975	1
976.702	-2
977.429	3
978.156	2
978.882	0
979.609	2
980.335	-1
981.062	0
981.788	-1
982.514	3
983.24	3
983.967	0
984.693	0
985.419	1
986.144	0
986.87	-1
987.596	1
988.322	1
989.047	0
989.773	1
990.498	0
991.224	3
991.949	1
992.674	1
993.399	0
994.124	2
994.849	2
995.574	0
996.299	1
997.024	2
997.749	0
998.473	1
999.198	0
999.922	-2
1000.647	-1
1001.371	4
1002.095	-1
1002.82	0
1003.544	-2
1004.268	3
1004.992	2
1005.716	0
1006.439	0
1007.163	2
1007.887	3
1008.611	2
1009.334	1
1010.058	2
1010.781	-1
1011.504	-2
1012.228	2
1012.951	-1
1013.674	-2
1014.397	2
1015.12	0
