节点500_285_QEPB04081__491__15-03-43-426.txt的数据

Date: Wed Nov 12 15:03:43 CST 2025
User: PC
Spectrometer: QEPB0408
触发模式: 0
积分时间 (秒): 1.000000E-2
Scans to average: 1
启用暗噪声校正: true
启用非线性校正: false
滑动平均宽度: 0
X轴模式: Wavelengths
Number of Pixels in Spectrum: 1044
>>>>>Begin Spectral Data<<<<<
220.843	1.75
221.644	2.75
222.444	0.75
223.244	1.75
224.045	1.75
224.845	3.75
225.645	1.75
226.445	3.75
227.245	1.75
228.045	3.75
228.845	2.75
229.645	0.75
230.444	0.75
231.244	4.75
232.043	4.75
232.843	2.75
233.642	2.75
234.442	4.75
235.241	4.75
236.04	4.75
236.839	3.75
237.638	2.75
238.437	2.75
239.236	2.75
240.035	1.75
240.833	2.75
241.632	4.75
242.43	4.75
243.229	4.75
244.027	6.75
244.826	3.75
245.624	5.75
246.422	4.75
247.22	4.75
248.018	4.75
248.816	5.75
249.614	8.75
250.412	6.75
251.21	5.75
252.007	6.75
252.805	4.75
253.602	6.75
254.4	2.75
255.197	8.75
255.994	5.75
256.791	6.75
257.589	7.75
258.386	8.75
259.183	8.75
259.979	9.75
260.776	9.75
261.573	9.75
262.37	9.75
263.166	8.75
263.963	9.75
264.759	13.75
265.556	11.75
266.352	14.75
267.148	12.75
267.944	12.75
268.74	11.75
269.536	13.75
270.332	12.75
271.128	11.75
271.924	13.75
272.719	15.75
273.515	17.75
274.311	15.75
275.106	18.75
275.901	17.75
276.697	16.75
277.492	17.75
278.287	17.75
279.082	17.75
279.877	17.75
280.672	17.75
281.467	16.75
282.262	17.75
283.056	17.75
283.851	16.75
284.646	15.75
285.44	20.75
286.234	19.75
287.029	19.75
287.823	16.75
288.617	13.75
289.411	17.75
290.205	16.75
290.999	19.75
291.793	17.75
292.587	20.75
293.381	14.75
294.174	16.75
294.968	15.75
295.761	15.75
296.555	15.75
297.348	15.75
298.141	15.75
298.935	17.75
299.728	12.75
300.521	13.75
301.314	12.75
302.107	13.75
302.899	11.75
303.692	11.75
304.485	10.75
305.277	13.75
306.07	11.75
306.862	11.75
307.655	12.75
308.447	10.75
309.239	9.75
310.031	10.75
310.823	8.75
311.615	10.75
312.407	7.75
313.199	8.75
313.991	10.75
314.783	8.75
315.574	9.75
316.366	6.75
317.157	6.75
317.949	6.75
318.74	6.75
319.531	7.75
320.322	8.75
321.113	7.75
321.904	9.75
322.695	8.75
323.486	6.75
324.277	8.75
325.068	6.75
325.858	6.75
326.649	7.75
327.439	4.75
328.23	6.75
329.02	8.75
329.81	7.75
330.6	5.75
331.391	7.75
332.181	6.75
332.971	5.75
333.76	3.75
334.55	7.75
335.34	4.75
336.13	8.75
336.919	8.75
337.709	7.75
338.498	8.75
339.287	3.75
340.077	6.75
340.866	4.75
341.655	7.75
342.444	4.75
343.233	4.75
344.022	5.75
344.811	6.75
345.6	3.75
346.388	5.75
347.177	6.75
347.965	7.75
348.754	5.75
349.542	5.75
350.33	4.75
351.119	7.75
351.907	1.75
352.695	6.75
353.483	4.75
354.271	4.75
355.059	4.75
355.846	6.75
356.634	3.75
357.422	6.75
358.209	4.75
358.997	3.75
359.784	6.75
360.571	5.75
361.359	2.75
362.146	4.75
362.933	4.75
363.72	4.75
364.507	1.75
365.294	5.75
366.081	3.75
366.867	4.75
367.654	3.75
368.44	5.75
369.227	6.75
370.013	4.75
370.8	3.75
371.586	5.75
372.372	6.75
373.158	4.75
373.944	7.75
374.73	5.75
375.516	7.75
376.302	4.75
377.088	5.75
377.873	5.75
378.659	5.75
379.445	6.75
380.23	2.75
381.015	5.75
381.801	3.75
382.586	5.75
383.371	5.75
384.156	4.75
384.941	5.75
385.726	3.75
386.511	5.75
387.296	4.75
388.08	7.75
388.865	6.75
389.649	6.75
390.434	5.75
391.218	4.75
392.003	5.75
392.787	6.75
393.571	6.75
394.355	6.75
395.139	4.75
395.923	5.75
396.707	6.75
397.491	6.75
398.274	5.75
399.058	7.75
399.842	4.75
400.625	6.75
401.408	6.75
402.192	5.75
402.975	6.75
403.758	5.75
404.541	5.75
405.324	7.75
406.107	6.75
406.89	8.75
407.673	5.75
408.456	7.75
409.238	8.75
410.021	9.75
410.803	8.75
411.586	6.75
412.368	7.75
413.151	7.75
413.933	4.75
414.715	9.75
415.497	8.75
416.279	10.75
417.061	8.75
417.843	9.75
418.624	7.75
419.406	7.75
420.188	9.75
420.969	7.75
421.751	8.75
422.532	10.75
423.313	7.75
424.095	10.75
424.876	11.75
425.657	13.75
426.438	11.75
427.219	10.75
428	11.75
428.78	11.75
429.561	11.75
430.342	12.75
431.122	15.75
431.903	14.75
432.683	16.75
433.464	15.75
434.244	14.75
435.024	17.75
435.804	16.75
436.584	18.75
437.364	19.75
438.144	19.75
438.924	19.75
439.704	22.75
440.483	24.75
441.263	25.75
442.042	24.75
442.822	26.75
443.601	30.75
444.38	28.75
445.16	29.75
445.939	35.75
446.718	38.75
447.497	38.75
448.276	39.75
449.054	46.75
449.833	51.75
450.612	49.75
451.391	58.75
452.169	65.75
452.948	69.75
453.726	76.75
454.504	84.75
455.282	96.75
456.061	100.75
456.839	114.75
457.617	129.75
458.395	138.75
459.172	156.75
459.95	176.75
460.728	194.75
461.506	217.75
462.283	236.75
463.061	266.75
463.838	301.75
464.615	330.75
465.393	367.75
466.17	410.75
466.947	456.75
467.724	517.75
468.501	560.75
469.278	628.75
470.055	709.75
470.831	783.75
471.608	859.75
472.385	962.75
473.161	1054.75
473.938	1188.75
474.714	1315.75
475.49	1439.75
476.266	1581.75
477.043	1747.75
477.819	1944.75
478.595	2132.75
479.371	2344.75
480.146	2592.75
480.922	2846.75
481.698	3101.75
482.473	3432.75
483.249	3770.75
484.024	4117.75
484.8	4531.75
485.575	4958.75
486.35	5441.75
487.126	5961.75
487.901	6543.75
488.676	7180.75
489.451	7809.75
490.225	8556.75
491	9297.75
491.775	10169.75
492.55	11044.75
493.324	11904.75
494.099	12837.75
494.873	13840.75
495.647	14939.75
496.422	16019.75
497.196	17135.75
497.97	18237.75
498.744	19483.75
499.518	20588.75
500.292	21658.75
501.066	22789.75
501.839	23636.75
502.613	24583.75
503.387	25342.75
504.16	26020.75
504.934	26391.75
505.707	26641.75
506.48	26823.75
507.253	26926.75
508.027	26617.75
508.8	26354.75
509.573	26008.75
510.346	25530.75
511.118	24795.75
511.891	24133.75
512.664	23329.75
513.437	22445.75
514.209	21600.75
514.982	20732.75
515.754	19839.75
516.526	18940.75
517.298	18178.75
518.071	17407.75
518.843	16724.75
519.615	16080.75
520.387	15453.75
521.159	14846.75
521.93	14249.75
522.702	13646.75
523.474	13114.75
524.245	12538.75
525.017	12013.75
525.788	11585.75
526.56	11040.75
527.331	10577.75
528.102	10080.75
528.873	9639.75
529.644	9118.75
530.415	8690.75
531.186	8278.75
531.957	7847.75
532.728	7462.75
533.498	7092.75
534.269	6702.75
535.039	6336.75
535.81	5988.75
536.58	5659.75
537.351	5337.75
538.121	5031.75
538.891	4773.75
539.661	4521.75
540.431	4263.75
541.201	4014.75
541.971	3798.75
542.741	3602.75
543.51	3427.75
544.28	3275.75
545.05	3123.75
545.819	2969.75
546.588	2811.75
547.358	2672.75
548.127	2539.75
548.896	2413.75
549.665	2293.75
550.434	2168.75
551.203	2031.75
551.972	1939.75
552.741	1833.75
553.51	1749.75
554.278	1645.75
555.047	1546.75
555.815	1456.75
556.584	1392.75
557.352	1307.75
558.121	1219.75
558.889	1164.75
559.657	1103.75
560.425	1019.75
561.193	976.75
561.961	924.75
562.729	868.75
563.496	826.75
564.264	778.75
565.032	738.75
565.799	696.75
566.567	665.75
567.334	623.75
568.101	595.75
568.869	559.75
569.636	529.75
570.403	483.75
571.17	460.75
571.937	430.75
572.704	408.75
573.471	391.75
574.237	370.75
575.004	347.75
575.771	328.75
576.537	306.75
577.303	289.75
578.07	272.75
578.836	263.75
579.602	243.75
580.368	230.75
581.134	213.75
581.9	204.75
582.666	197.75
583.432	182.75
584.198	175.75
584.964	168.75
585.729	154.75
586.495	151.75
587.26	144.75
588.025	140.75
588.791	124.75
589.556	115.75
590.321	116.75
591.086	110.75
591.851	100.75
592.616	96.75
593.381	90.75
594.146	89.75
594.911	84.75
595.675	83.75
596.44	79.75
597.204	69.75
597.969	69.75
598.733	64.75
599.497	66.75
600.261	62.75
601.025	60.75
601.79	53.75
602.553	53.75
603.317	51.75
604.081	49.75
604.845	45.75
605.609	41.75
606.372	40.75
607.136	41.75
607.899	40.75
608.662	37.75
609.426	35.75
610.189	36.75
610.952	33.75
611.715	33.75
612.478	31.75
613.241	28.75
614.004	25.75
614.767	27.75
615.529	25.75
616.292	24.75
617.055	23.75
617.817	22.75
618.579	21.75
619.342	24.75
620.104	23.75
620.866	21.75
621.628	16.75
622.39	21.75
623.152	19.75
623.914	20.75
624.676	17.75
625.438	17.75
626.199	18.75
626.961	13.75
627.722	16.75
628.484	13.75
629.245	15.75
630.006	14.75
630.768	11.75
631.529	13.75
632.29	12.75
633.051	12.75
633.812	9.75
634.573	11.75
635.333	13.75
636.094	11.75
636.855	10.75
637.615	11.75
638.376	9.75
639.136	8.75
639.896	9.75
640.657	9.75
641.417	7.75
642.177	11.75
642.937	8.75
643.697	9.75
644.457	7.75
645.216	8.75
645.976	8.75
646.736	5.75
647.495	8.75
648.255	6.75
649.014	6.75
649.774	6.75
650.533	6.75
651.292	8.75
652.051	4.75
652.81	7.75
653.569	8.75
654.328	6.75
655.087	5.75
655.846	7.75
656.604	7.75
657.363	6.75
658.121	8.75
658.88	3.75
659.638	6.75
660.397	4.75
661.155	6.75
661.913	5.75
662.671	5.75
663.429	3.75
664.187	5.75
664.945	5.75
665.703	4.75
666.46	6.75
667.218	4.75
667.976	4.75
668.733	4.75
669.49	4.75
670.248	4.75
671.005	4.75
671.762	4.75
672.519	5.75
673.276	4.75
674.033	3.75
674.79	5.75
675.547	4.75
676.304	5.75
677.06	3.75
677.817	2.75
678.574	2.75
679.33	2.75
680.086	3.75
680.843	4.75
681.599	3.75
682.355	4.75
683.111	3.75
683.867	4.75
684.623	2.75
685.379	2.75
686.135	3.75
686.89	5.75
687.646	2.75
688.402	2.75
689.157	2.75
689.912	4.75
690.668	2.75
691.423	1.75
692.178	2.75
692.933	5.75
693.688	4.75
694.443	3.75
695.198	2.75
695.953	4.75
696.708	5.75
697.462	2.75
698.217	3.75
698.972	2.75
699.726	3.75
700.48	1.75
701.235	5.75
701.989	2.75
702.743	3.75
703.497	3.75
704.251	5.75
705.005	3.75
705.759	3.75
706.513	2.75
707.266	3.75
708.02	3.75
708.774	4.75
709.527	1.75
710.28	5.75
711.034	2.75
711.787	4.75
712.54	3.75
713.293	4.75
714.046	2.75
714.799	2.75
715.552	5.75
716.305	3.75
717.058	2.75
717.81	1.75
718.563	3.75
719.315	2.75
720.068	1.75
720.82	3.75
721.573	3.75
722.325	4.75
723.077	5.75
723.829	3.75
724.581	4.75
725.333	2.75
726.085	4.75
726.836	1.75
727.588	2.75
728.34	4.75
729.091	3.75
729.843	6.75
730.594	5.75
731.346	6.75
732.097	3.75
732.848	3.75
733.599	5.75
734.35	4.75
735.101	4.75
735.852	6.75
736.603	4.75
737.354	2.75
738.104	5.75
738.855	6.75
739.605	4.75
740.356	3.75
741.106	4.75
741.856	4.75
742.607	4.75
743.357	2.75
744.107	6.75
744.857	4.75
745.607	3.75
746.357	5.75
747.106	2.75
747.856	4.75
748.606	5.75
749.355	3.75
750.105	7.75
750.854	5.75
751.603	0.75
752.353	3.75
753.102	5.75
753.851	5.75
754.6	3.75
755.349	4.75
756.098	4.75
756.847	5.75
757.595	5.75
758.344	4.75
759.093	6.75
759.841	5.75
760.589	4.75
761.338	4.75
762.086	7.75
762.834	6.75
763.582	7.75
764.331	7.75
765.079	5.75
765.826	5.75
766.574	5.75
767.322	5.75
768.07	4.75
768.817	8.75
769.565	6.75
770.312	5.75
771.06	8.75
771.807	7.75
772.554	7.75
773.302	5.75
774.049	4.75
774.796	5.75
775.543	9.75
776.29	4.75
777.036	6.75
777.783	9.75
778.53	9.75
779.276	8.75
780.023	9.75
780.769	8.75
781.516	8.75
782.262	9.75
783.008	7.75
783.754	6.75
784.5	9.75
785.246	8.75
785.992	8.75
786.738	7.75
787.484	8.75
788.23	7.75
788.975	9.75
789.721	6.75
790.466	8.75
791.212	7.75
791.957	9.75
792.702	7.75
793.447	9.75
794.193	5.75
794.938	5.75
795.683	7.75
796.427	6.75
797.172	9.75
797.917	6.75
798.662	8.75
799.406	8.75
800.151	7.75
800.895	6.75
801.64	5.75
802.384	6.75
803.128	8.75
803.872	6.75
804.616	8.75
805.36	6.75
806.104	2.75
806.848	5.75
807.592	6.75
808.336	8.75
809.079	6.75
809.823	6.75
810.566	4.75
811.31	4.75
812.053	4.75
812.796	3.75
813.539	3.75
814.283	4.75
815.026	6.75
815.769	6.75
816.511	3.75
817.254	3.75
817.997	3.75
818.74	5.75
819.482	4.75
820.225	2.75
820.967	4.75
821.71	3.75
822.452	4.75
823.194	4.75
823.936	7.75
824.678	1.75
825.42	4.75
826.162	3.75
826.904	4.75
827.646	5.75
828.388	1.75
829.129	1.75
829.871	2.75
830.612	5.75
831.354	2.75
832.095	1.75
832.836	2.75
833.577	0.75
834.319	3.75
835.06	2.75
835.801	1.75
836.542	4.75
837.282	3.75
838.023	2.75
838.764	-0.25
839.504	2.75
840.245	1.75
840.985	2.75
841.726	2.75
842.466	1.75
843.206	3.75
843.946	3.75
844.687	1.75
845.427	2.75
846.166	3.75
846.906	2.75
847.646	2.75
848.386	4.75
849.125	1.75
849.865	2.75
850.605	2.75
851.344	3.75
852.083	3.75
852.823	1.75
853.562	4.75
854.301	3.75
855.04	1.75
855.779	2.75
856.518	0.75
857.257	1.75
857.995	0.75
858.734	1.75
859.473	1.75
860.211	1.75
860.95	1.75
861.688	1.75
862.426	-0.25
863.165	0.75
863.903	2.75
864.641	2.75
865.379	1.75
866.117	4.75
866.855	0.75
867.593	1.75
868.33	1.75
869.068	0.75
869.806	0.75
870.543	1.75
871.28	2.75
872.018	3.75
872.755	-0.25
873.492	1.75
874.229	0.75
874.967	2.75
875.703	1.75
876.44	4.75
877.177	1.75
877.914	-2.25
878.651	0.75
879.387	-0.25
880.124	0.75
880.86	-0.25
881.597	1.75
882.333	-0.25
883.069	0.75
883.806	0.75
884.542	-0.25
885.278	1.75
886.014	2.75
886.749	0.75
887.485	-0.25
888.221	1.75
888.957	1.75
889.692	1.75
890.428	1.75
891.163	1.75
891.899	0.75
892.634	1.75
893.369	1.75
894.104	1.75
894.839	-0.25
895.574	-1.25
896.309	1.75
897.044	-1.25
897.779	-0.25
898.514	0.75
899.248	1.75
899.983	-0.25
900.717	1.75
901.452	0.75
902.186	-0.25
902.92	1.75
903.654	-0.25
904.389	-0.25
905.123	2.75
905.857	-0.25
906.59	-0.25
907.324	-2.25
908.058	0.75
908.792	0.75
909.525	-0.25
910.259	-0.25
910.992	-0.25
911.726	-0.25
912.459	1.75
913.192	1.75
913.925	-0.25
914.658	0.75
915.391	-0.25
916.124	-2.25
916.857	1.75
917.59	0.75
918.323	-0.25
919.055	-0.25
919.788	0.75
920.521	1.75
921.253	-0.25
921.985	0.75
922.718	-0.25
923.45	0.75
924.182	-2.25
924.914	-0.25
925.646	2.75
926.378	-1.25
927.11	-1.25
927.841	1.75
928.573	-0.25
929.305	-1.25
930.036	-1.25
930.768	-0.25
931.499	1.75
932.23	1.75
932.962	-1.25
933.693	1.75
934.424	0.75
935.155	0.75
935.886	-0.25
936.617	0.75
937.348	1.75
938.078	-0.25
938.809	0.75
939.54	-0.25
940.27	0.75
941.001	1.75
941.731	-0.25
942.461	0.75
943.191	3.75
943.922	-2.25
944.652	1.75
945.382	0.75
946.112	1.75
946.841	-2.25
947.571	0.75
948.301	-0.25
949.031	-0.25
949.76	1.75
950.49	-1.25
951.219	-1.25
951.948	-0.25
952.678	-1.25
953.407	-0.25
954.136	0.75
954.865	-0.25
955.594	-2.25
956.323	1.75
957.052	1.75
957.78	-1.25
958.509	1.75
959.238	-1.25
959.966	-0.25
960.695	-0.25
961.423	-0.25
962.151	-1.25
962.88	-0.25
963.608	0.75
964.336	-1.25
965.064	-0.25
965.792	-0.25
966.52	-0.25
967.247	0.75
967.975	-0.25
968.703	-0.25
969.43	-0.25
970.158	1.75
970.885	-1.25
971.613	-3.25
972.34	0.75
973.067	-3.25
973.794	0.75
974.521	-0.25
975.248	1.75
975.975	-1.25
976.702	0.75
977.429	0.75
978.156	0.75
978.882	1.75
979.609	0.75
980.335	0.75
981.062	1.75
981.788	-0.25
982.514	-0.25
983.24	-0.25
983.967	-1.25
984.693	2.75
985.419	-1.25
986.144	-0.25
986.87	-1.25
987.596	-0.25
988.322	-1.25
989.047	0.75
989.773	1.75
990.498	-0.25
991.224	0.75
991.949	-1.25
992.674	0.75
993.399	-0.25
994.124	-0.25
994.849	-0.25
995.574	-3.25
996.299	1.75
997.024	-0.25
997.749	0.75
998.473	0.75
999.198	-2.25
999.922	0.75
1000.647	0.75
1001.371	2.75
1002.095	0.75
1002.82	-2.25
1003.544	-1.25
1004.268	-0.25
1004.992	1.75
1005.716	1.75
1006.439	1.75
1007.163	3.75
1007.887	1.75
1008.611	0.75
1009.334	-0.25
1010.058	-0.25
1010.781	0.75
1011.504	-0.25
1012.228	3.75
1012.951	0.75
1013.674	0.75
1014.397	-1.25
1015.12	-0.25
