节点500_285_QEPB04081__830__15-09-21-731.txt的数据

Date: Wed Nov 12 15:09:21 CST 2025
User: PC
Spectrometer: QEPB0408
触发模式: 0
积分时间 (秒): 1.000000E-2
Scans to average: 1
启用暗噪声校正: true
启用非线性校正: false
滑动平均宽度: 0
X轴模式: Wavelengths
Number of Pixels in Spectrum: 1044
>>>>>Begin Spectral Data<<<<<
220.843	3.5
221.644	-1.5
222.444	-0.5
223.244	2.5
224.045	4.5
224.845	2.5
225.645	2.5
226.445	3.5
227.245	2.5
228.045	3.5
228.845	-0.5
229.645	0.5
230.444	2.5
231.244	3.5
232.043	3.5
232.843	1.5
233.642	2.5
234.442	3.5
235.241	2.5
236.04	5.5
236.839	1.5
237.638	4.5
238.437	3.5
239.236	6.5
240.035	3.5
240.833	2.5
241.632	4.5
242.43	5.5
243.229	4.5
244.027	5.5
244.826	2.5
245.624	7.5
246.422	2.5
247.22	6.5
248.018	5.5
248.816	6.5
249.614	5.5
250.412	7.5
251.21	7.5
252.007	7.5
252.805	7.5
253.602	5.5
254.4	7.5
255.197	10.5
255.994	7.5
256.791	6.5
257.589	7.5
258.386	7.5
259.183	6.5
259.979	8.5
260.776	9.5
261.573	8.5
262.37	9.5
263.166	9.5
263.963	10.5
264.759	8.5
265.556	10.5
266.352	11.5
267.148	14.5
267.944	9.5
268.74	13.5
269.536	13.5
270.332	13.5
271.128	12.5
271.924	14.5
272.719	13.5
273.515	13.5
274.311	14.5
275.106	14.5
275.901	16.5
276.697	15.5
277.492	14.5
278.287	16.5
279.082	17.5
279.877	15.5
280.672	16.5
281.467	16.5
282.262	17.5
283.056	18.5
283.851	16.5
284.646	15.5
285.44	16.5
286.234	18.5
287.029	17.5
287.823	18.5
288.617	18.5
289.411	14.5
290.205	14.5
290.999	14.5
291.793	17.5
292.587	17.5
293.381	16.5
294.174	18.5
294.968	14.5
295.761	12.5
296.555	14.5
297.348	15.5
298.141	17.5
298.935	14.5
299.728	13.5
300.521	10.5
301.314	14.5
302.107	14.5
302.899	13.5
303.692	12.5
304.485	13.5
305.277	13.5
306.07	9.5
306.862	12.5
307.655	12.5
308.447	10.5
309.239	13.5
310.031	10.5
310.823	10.5
311.615	8.5
312.407	9.5
313.199	10.5
313.991	10.5
314.783	8.5
315.574	8.5
316.366	9.5
317.157	8.5
317.949	8.5
318.74	8.5
319.531	9.5
320.322	8.5
321.113	8.5
321.904	8.5
322.695	7.5
323.486	5.5
324.277	8.5
325.068	5.5
325.858	8.5
326.649	6.5
327.439	8.5
328.23	7.5
329.02	5.5
329.81	8.5
330.6	5.5
331.391	6.5
332.181	6.5
332.971	5.5
333.76	7.5
334.55	6.5
335.34	6.5
336.13	4.5
336.919	4.5
337.709	8.5
338.498	4.5
339.287	6.5
340.077	7.5
340.866	6.5
341.655	6.5
342.444	5.5
343.233	7.5
344.022	6.5
344.811	7.5
345.6	6.5
346.388	6.5
347.177	6.5
347.965	5.5
348.754	7.5
349.542	7.5
350.33	6.5
351.119	5.5
351.907	8.5
352.695	3.5
353.483	4.5
354.271	5.5
355.059	4.5
355.846	5.5
356.634	6.5
357.422	6.5
358.209	3.5
358.997	5.5
359.784	4.5
360.571	4.5
361.359	6.5
362.146	5.5
362.933	5.5
363.72	4.5
364.507	4.5
365.294	5.5
366.081	6.5
366.867	6.5
367.654	5.5
368.44	6.5
369.227	4.5
370.013	4.5
370.8	3.5
371.586	5.5
372.372	5.5
373.158	4.5
373.944	4.5
374.73	5.5
375.516	5.5
376.302	7.5
377.088	6.5
377.873	5.5
378.659	6.5
379.445	5.5
380.23	2.5
381.015	5.5
381.801	3.5
382.586	4.5
383.371	7.5
384.156	4.5
384.941	6.5
385.726	7.5
386.511	4.5
387.296	7.5
388.08	6.5
388.865	6.5
389.649	7.5
390.434	5.5
391.218	6.5
392.003	4.5
392.787	5.5
393.571	5.5
394.355	4.5
395.139	5.5
395.923	5.5
396.707	6.5
397.491	5.5
398.274	5.5
399.058	6.5
399.842	9.5
400.625	6.5
401.408	7.5
402.192	5.5
402.975	8.5
403.758	6.5
404.541	3.5
405.324	7.5
406.107	8.5
406.89	6.5
407.673	8.5
408.456	8.5
409.238	6.5
410.021	9.5
410.803	6.5
411.586	8.5
412.368	8.5
413.151	9.5
413.933	9.5
414.715	6.5
415.497	9.5
416.279	8.5
417.061	10.5
417.843	11.5
418.624	7.5
419.406	8.5
420.188	12.5
420.969	10.5
421.751	9.5
422.532	10.5
423.313	8.5
424.095	10.5
424.876	13.5
425.657	11.5
426.438	9.5
427.219	11.5
428	10.5
428.78	12.5
429.561	14.5
430.342	13.5
431.122	14.5
431.903	16.5
432.683	15.5
433.464	13.5
434.244	15.5
435.024	18.5
435.804	18.5
436.584	18.5
437.364	20.5
438.144	22.5
438.924	21.5
439.704	24.5
440.483	19.5
441.263	25.5
442.042	24.5
442.822	31.5
443.601	28.5
444.38	30.5
445.16	31.5
445.939	34.5
446.718	39.5
447.497	44.5
448.276	42.5
449.054	49.5
449.833	53.5
450.612	59.5
451.391	65.5
452.169	71.5
452.948	74.5
453.726	81.5
454.504	89.5
455.282	101.5
456.061	112.5
456.839	129.5
457.617	141.5
458.395	153.5
459.172	168.5
459.95	193.5
460.728	212.5
461.506	238.5
462.283	262.5
463.061	296.5
463.838	325.5
464.615	361.5
465.393	398.5
466.17	442.5
466.947	487.5
467.724	542.5
468.501	589.5
469.278	679.5
470.055	743.5
470.831	817.5
471.608	902.5
472.385	1004.5
473.161	1096.5
473.938	1210.5
474.714	1345.5
475.49	1456.5
476.266	1614.5
477.043	1773.5
477.819	1944.5
478.595	2141.5
479.371	2327.5
480.146	2554.5
480.922	2769.5
481.698	3052.5
482.473	3338.5
483.249	3614.5
484.024	3958.5
484.8	4313.5
485.575	4717.5
486.35	5112.5
487.126	5575.5
487.901	6062.5
488.676	6636.5
489.451	7165.5
490.225	7826.5
491	8409.5
491.775	9182.5
492.55	9990.5
493.324	10741.5
494.099	11494.5
494.873	12348.5
495.647	13249.5
496.422	14216.5
497.196	15213.5
497.97	16237.5
498.744	17256.5
499.518	18283.5
500.292	19306.5
501.066	20259.5
501.839	21187.5
502.613	22150.5
503.387	22940.5
504.16	23645.5
504.934	24166.5
505.707	24529.5
506.48	24762.5
507.253	24915.5
508.027	24937.5
508.8	24958.5
509.573	24724.5
510.346	24517.5
511.118	23950.5
511.891	23432.5
512.664	22870.5
513.437	22165.5
514.209	21411.5
514.982	20657.5
515.754	19829.5
516.526	19062.5
517.298	18283.5
518.071	17583.5
518.843	16935.5
519.615	16329.5
520.387	15634.5
521.159	15061.5
521.93	14463.5
522.702	13876.5
523.474	13333.5
524.245	12742.5
525.017	12160.5
525.788	11758.5
526.56	11246.5
527.331	10722.5
528.102	10282.5
528.873	9834.5
529.644	9361.5
530.415	8963.5
531.186	8513.5
531.957	8114.5
532.728	7760.5
533.498	7380.5
534.269	6972.5
535.039	6622.5
535.81	6254.5
536.58	5918.5
537.351	5556.5
538.121	5277.5
538.891	5022.5
539.661	4718.5
540.431	4478.5
541.201	4208.5
541.971	4001.5
542.741	3814.5
543.51	3589.5
544.28	3434.5
545.05	3264.5
545.819	3097.5
546.588	2969.5
547.358	2802.5
548.127	2684.5
548.896	2531.5
549.665	2423.5
550.434	2289.5
551.203	2156.5
551.972	2061.5
552.741	1951.5
553.51	1832.5
554.278	1743.5
555.047	1643.5
555.815	1563.5
556.584	1481.5
557.352	1397.5
558.121	1321.5
558.889	1241.5
559.657	1179.5
560.425	1118.5
561.193	1037.5
561.961	982.5
562.729	935.5
563.496	880.5
564.264	836.5
565.032	785.5
565.799	753.5
566.567	711.5
567.334	664.5
568.101	637.5
568.869	593.5
569.636	565.5
570.403	530.5
571.17	500.5
571.937	472.5
572.704	447.5
573.471	417.5
574.237	390.5
575.004	371.5
575.771	350.5
576.537	328.5
577.303	307.5
578.07	291.5
578.836	275.5
579.602	261.5
580.368	248.5
581.134	229.5
581.9	217.5
582.666	207.5
583.432	201.5
584.198	191.5
584.964	181.5
585.729	169.5
586.495	157.5
587.26	155.5
588.025	143.5
588.791	138.5
589.556	133.5
590.321	121.5
591.086	113.5
591.851	106.5
592.616	107.5
593.381	98.5
594.146	92.5
594.911	92.5
595.675	88.5
596.44	84.5
597.204	78.5
597.969	74.5
598.733	68.5
599.497	71.5
600.261	66.5
601.025	66.5
601.79	62.5
602.553	55.5
603.317	53.5
604.081	53.5
604.845	46.5
605.609	46.5
606.372	45.5
607.136	45.5
607.899	39.5
608.662	41.5
609.426	41.5
610.189	38.5
610.952	34.5
611.715	34.5
612.478	37.5
613.241	33.5
614.004	30.5
614.767	29.5
615.529	30.5
616.292	29.5
617.055	27.5
617.817	27.5
618.579	26.5
619.342	22.5
620.104	24.5
620.866	21.5
621.628	20.5
622.39	23.5
623.152	17.5
623.914	22.5
624.676	18.5
625.438	16.5
626.199	17.5
626.961	16.5
627.722	16.5
628.484	15.5
629.245	15.5
630.006	17.5
630.768	14.5
631.529	12.5
632.29	14.5
633.051	14.5
633.812	12.5
634.573	12.5
635.333	13.5
636.094	14.5
636.855	13.5
637.615	12.5
638.376	9.5
639.136	9.5
639.896	8.5
640.657	8.5
641.417	11.5
642.177	10.5
642.937	10.5
643.697	9.5
644.457	8.5
645.216	9.5
645.976	11.5
646.736	8.5
647.495	9.5
648.255	6.5
649.014	7.5
649.774	6.5
650.533	7.5
651.292	7.5
652.051	8.5
652.81	7.5
653.569	7.5
654.328	6.5
655.087	7.5
655.846	7.5
656.604	6.5
657.363	5.5
658.121	5.5
658.88	3.5
659.638	7.5
660.397	7.5
661.155	6.5
661.913	5.5
662.671	3.5
663.429	4.5
664.187	6.5
664.945	4.5
665.703	3.5
666.46	4.5
667.218	6.5
667.976	4.5
668.733	4.5
669.49	5.5
670.248	4.5
671.005	3.5
671.762	5.5
672.519	6.5
673.276	4.5
674.033	3.5
674.79	6.5
675.547	3.5
676.304	3.5
677.06	4.5
677.817	5.5
678.574	4.5
679.33	5.5
680.086	3.5
680.843	4.5
681.599	6.5
682.355	4.5
683.111	3.5
683.867	6.5
684.623	4.5
685.379	5.5
686.135	4.5
686.89	4.5
687.646	3.5
688.402	5.5
689.157	5.5
689.912	4.5
690.668	3.5
691.423	5.5
692.178	2.5
692.933	2.5
693.688	3.5
694.443	3.5
695.198	5.5
695.953	4.5
696.708	4.5
697.462	3.5
698.217	2.5
698.972	4.5
699.726	0.5
700.48	5.5
701.235	3.5
701.989	4.5
702.743	3.5
703.497	4.5
704.251	3.5
705.005	2.5
705.759	3.5
706.513	6.5
707.266	3.5
708.02	2.5
708.774	2.5
709.527	2.5
710.28	4.5
711.034	3.5
711.787	2.5
712.54	3.5
713.293	2.5
714.046	4.5
714.799	1.5
715.552	3.5
716.305	4.5
717.058	4.5
717.81	3.5
718.563	6.5
719.315	2.5
720.068	4.5
720.82	1.5
721.573	2.5
722.325	4.5
723.077	4.5
723.829	2.5
724.581	2.5
725.333	2.5
726.085	3.5
726.836	3.5
727.588	2.5
728.34	4.5
729.091	3.5
729.843	2.5
730.594	4.5
731.346	2.5
732.097	2.5
732.848	3.5
733.599	3.5
734.35	5.5
735.101	1.5
735.852	6.5
736.603	5.5
737.354	4.5
738.104	6.5
738.855	6.5
739.605	5.5
740.356	3.5
741.106	5.5
741.856	3.5
742.607	3.5
743.357	5.5
744.107	2.5
744.857	4.5
745.607	5.5
746.357	3.5
747.106	4.5
747.856	5.5
748.606	4.5
749.355	2.5
750.105	2.5
750.854	4.5
751.603	5.5
752.353	3.5
753.102	3.5
753.851	6.5
754.6	6.5
755.349	5.5
756.098	5.5
756.847	5.5
757.595	6.5
758.344	5.5
759.093	6.5
759.841	5.5
760.589	6.5
761.338	7.5
762.086	5.5
762.834	7.5
763.582	4.5
764.331	4.5
765.079	7.5
765.826	5.5
766.574	7.5
767.322	6.5
768.07	7.5
768.817	4.5
769.565	4.5
770.312	8.5
771.06	6.5
771.807	7.5
772.554	7.5
773.302	7.5
774.049	7.5
774.796	6.5
775.543	5.5
776.29	7.5
777.036	7.5
777.783	7.5
778.53	10.5
779.276	7.5
780.023	7.5
780.769	5.5
781.516	7.5
782.262	10.5
783.008	12.5
783.754	8.5
784.5	8.5
785.246	6.5
785.992	10.5
786.738	7.5
787.484	7.5
788.23	7.5
788.975	6.5
789.721	8.5
790.466	8.5
791.212	9.5
791.957	4.5
792.702	8.5
793.447	8.5
794.193	9.5
794.938	8.5
795.683	8.5
796.427	8.5
797.172	7.5
797.917	6.5
798.662	8.5
799.406	7.5
800.151	9.5
800.895	7.5
801.64	9.5
802.384	5.5
803.128	7.5
803.872	6.5
804.616	5.5
805.36	8.5
806.104	4.5
806.848	8.5
807.592	4.5
808.336	7.5
809.079	5.5
809.823	6.5
810.566	3.5
811.31	4.5
812.053	5.5
812.796	5.5
813.539	7.5
814.283	6.5
815.026	10.5
815.769	5.5
816.511	4.5
817.254	6.5
817.997	5.5
818.74	4.5
819.482	7.5
820.225	3.5
820.967	4.5
821.71	4.5
822.452	4.5
823.194	5.5
823.936	5.5
824.678	6.5
825.42	3.5
826.162	2.5
826.904	5.5
827.646	5.5
828.388	3.5
829.129	7.5
829.871	3.5
830.612	5.5
831.354	5.5
832.095	4.5
832.836	5.5
833.577	5.5
834.319	4.5
835.06	5.5
835.801	2.5
836.542	4.5
837.282	3.5
838.023	2.5
838.764	4.5
839.504	3.5
840.245	3.5
840.985	3.5
841.726	3.5
842.466	4.5
843.206	3.5
843.946	4.5
844.687	2.5
845.427	2.5
846.166	2.5
846.906	4.5
847.646	1.5
848.386	5.5
849.125	2.5
849.865	4.5
850.605	3.5
851.344	3.5
852.083	2.5
852.823	3.5
853.562	2.5
854.301	2.5
855.04	0.5
855.779	2.5
856.518	3.5
857.257	2.5
857.995	2.5
858.734	2.5
859.473	-0.5
860.211	3.5
860.95	0.5
861.688	1.5
862.426	2.5
863.165	3.5
863.903	2.5
864.641	2.5
865.379	2.5
866.117	3.5
866.855	1.5
867.593	1.5
868.33	-1.5
869.068	2.5
869.806	1.5
870.543	0.5
871.28	3.5
872.018	0.5
872.755	2.5
873.492	4.5
874.229	4.5
874.967	-0.5
875.703	0.5
876.44	1.5
877.177	2.5
877.914	2.5
878.651	-0.5
879.387	1.5
880.124	0.5
880.86	-1.5
881.597	0.5
882.333	0.5
883.069	1.5
883.806	1.5
884.542	1.5
885.278	5.5
886.014	1.5
886.749	1.5
887.485	1.5
888.221	0.5
888.957	1.5
889.692	-0.5
890.428	0.5
891.163	1.5
891.899	2.5
892.634	0.5
893.369	1.5
894.104	3.5
894.839	2.5
895.574	0.5
896.309	1.5
897.044	1.5
897.779	1.5
898.514	0.5
899.248	1.5
899.983	2.5
900.717	1.5
901.452	0.5
902.186	0.5
902.92	0.5
903.654	0.5
904.389	1.5
905.123	1.5
905.857	-0.5
906.59	0.5
907.324	1.5
908.058	1.5
908.792	-0.5
909.525	0.5
910.259	0.5
910.992	0.5
911.726	2.5
912.459	0.5
913.192	-1.5
913.925	0.5
914.658	2.5
915.391	2.5
916.124	0.5
916.857	1.5
917.59	-1.5
918.323	-1.5
919.055	0.5
919.788	2.5
920.521	1.5
921.253	0.5
921.985	0.5
922.718	1.5
923.45	0.5
924.182	1.5
924.914	2.5
925.646	0.5
926.378	0.5
927.11	1.5
927.841	-0.5
928.573	1.5
929.305	1.5
930.036	1.5
930.768	0.5
931.499	0.5
932.23	1.5
932.962	0.5
933.693	0.5
934.424	-0.5
935.155	1.5
935.886	-0.5
936.617	1.5
937.348	1.5
938.078	0.5
938.809	0.5
939.54	0.5
940.27	2.5
941.001	0.5
941.731	1.5
942.461	-0.5
943.191	0.5
943.922	1.5
944.652	0.5
945.382	1.5
946.112	1.5
946.841	-0.5
947.571	-0.5
948.301	-1.5
949.031	1.5
949.76	0.5
950.49	1.5
951.219	1.5
951.948	0.5
952.678	-0.5
953.407	-0.5
954.136	0.5
954.865	1.5
955.594	1.5
956.323	0.5
957.052	1.5
957.78	0.5
958.509	0.5
959.238	1.5
959.966	1.5
960.695	0.5
961.423	-0.5
962.151	-0.5
962.88	3.5
963.608	-1.5
964.336	1.5
965.064	-1.5
965.792	-1.5
966.52	0.5
967.247	0.5
967.975	2.5
968.703	0.5
969.43	0.5
970.158	-0.5
970.885	0.5
971.613	1.5
972.34	-1.5
973.067	1.5
973.794	0.5
974.521	-0.5
975.248	0.5
975.975	0.5
976.702	1.5
977.429	2.5
978.156	1.5
978.882	1.5
979.609	0.5
980.335	-0.5
981.062	1.5
981.788	2.5
982.514	0.5
983.24	0.5
983.967	0.5
984.693	0.5
985.419	-1.5
986.144	1.5
986.87	0.5
987.596	0.5
988.322	1.5
989.047	0.5
989.773	1.5
990.498	0.5
991.224	0.5
991.949	-2.5
992.674	2.5
993.399	0.5
994.124	2.5
994.849	1.5
995.574	-1.5
996.299	-0.5
997.024	1.5
997.749	1.5
998.473	1.5
999.198	1.5
999.922	1.5
1000.647	0.5
1001.371	3.5
1002.095	-1.5
1002.82	-1.5
1003.544	-0.5
1004.268	2.5
1004.992	1.5
1005.716	0.5
1006.439	-0.5
1007.163	2.5
1007.887	0.5
1008.611	-0.5
1009.334	-1.5
1010.058	-1.5
1010.781	-1.5
1011.504	-0.5
1012.228	0.5
1012.951	-0.5
1013.674	0.5
1014.397	-0.5
1015.12	0.5
