节点500_285_QEPB04081__449__15-03-01-539.txt的数据

Date: Wed Nov 12 15:03:01 CST 2025
User: PC
Spectrometer: QEPB0408
触发模式: 0
积分时间 (秒): 1.000000E-2
Scans to average: 1
启用暗噪声校正: true
启用非线性校正: false
滑动平均宽度: 0
X轴模式: Wavelengths
Number of Pixels in Spectrum: 1044
>>>>>Begin Spectral Data<<<<<
220.843	1
221.644	1
222.444	0
223.244	2
224.045	2
224.845	2
225.645	2
226.445	2
227.245	2
228.045	5
228.845	3
229.645	4
230.444	1
231.244	3
232.043	3
232.843	2
233.642	5
234.442	2
235.241	3
236.04	3
236.839	4
237.638	5
238.437	6
239.236	6
240.035	2
240.833	2
241.632	4
242.43	6
243.229	2
244.027	7
244.826	6
245.624	6
246.422	5
247.22	3
248.018	7
248.816	6
249.614	7
250.412	6
251.21	6
252.007	6
252.805	7
253.602	8
254.4	6
255.197	7
255.994	9
256.791	7
257.589	8
258.386	10
259.183	7
259.979	9
260.776	11
261.573	11
262.37	10
263.166	12
263.963	10
264.759	12
265.556	13
266.352	17
267.148	16
267.944	11
268.74	14
269.536	14
270.332	14
271.128	15
271.924	15
272.719	17
273.515	14
274.311	16
275.106	18
275.901	16
276.697	15
277.492	17
278.287	15
279.082	18
279.877	18
280.672	17
281.467	16
282.262	19
283.056	19
283.851	22
284.646	18
285.44	20
286.234	18
287.029	16
287.823	19
288.617	18
289.411	18
290.205	18
290.999	21
291.793	18
292.587	18
293.381	18
294.174	17
294.968	16
295.761	15
296.555	15
297.348	15
298.141	16
298.935	17
299.728	16
300.521	14
301.314	13
302.107	14
302.899	17
303.692	11
304.485	13
305.277	13
306.07	13
306.862	13
307.655	13
308.447	12
309.239	10
310.031	13
310.823	13
311.615	10
312.407	8
313.199	9
313.991	13
314.783	10
315.574	9
316.366	8
317.157	8
317.949	6
318.74	6
319.531	9
320.322	9
321.113	8
321.904	7
322.695	7
323.486	8
324.277	6
325.068	8
325.858	7
326.649	9
327.439	7
328.23	5
329.02	9
329.81	7
330.6	7
331.391	7
332.181	6
332.971	7
333.76	5
334.55	6
335.34	7
336.13	5
336.919	6
337.709	7
338.498	6
339.287	7
340.077	8
340.866	4
341.655	7
342.444	6
343.233	8
344.022	5
344.811	7
345.6	6
346.388	5
347.177	7
347.965	7
348.754	8
349.542	9
350.33	7
351.119	8
351.907	5
352.695	5
353.483	6
354.271	7
355.059	6
355.846	6
356.634	4
357.422	8
358.209	4
358.997	7
359.784	6
360.571	6
361.359	6
362.146	4
362.933	5
363.72	4
364.507	6
365.294	7
366.081	5
366.867	7
367.654	4
368.44	5
369.227	5
370.013	3
370.8	5
371.586	5
372.372	6
373.158	2
373.944	7
374.73	5
375.516	7
376.302	5
377.088	5
377.873	5
378.659	3
379.445	7
380.23	4
381.015	2
381.801	5
382.586	5
383.371	4
384.156	6
384.941	4
385.726	7
386.511	6
387.296	8
388.08	7
388.865	9
389.649	5
390.434	6
391.218	7
392.003	8
392.787	8
393.571	6
394.355	8
395.139	5
395.923	6
396.707	9
397.491	4
398.274	8
399.058	7
399.842	7
400.625	8
401.408	6
402.192	7
402.975	8
403.758	11
404.541	7
405.324	8
406.107	10
406.89	9
407.673	11
408.456	8
409.238	7
410.021	7
410.803	8
411.586	10
412.368	8
413.151	9
413.933	6
414.715	8
415.497	8
416.279	9
417.061	9
417.843	11
418.624	12
419.406	8
420.188	10
420.969	9
421.751	10
422.532	10
423.313	11
424.095	12
424.876	10
425.657	14
426.438	14
427.219	11
428	14
428.78	11
429.561	15
430.342	15
431.122	14
431.903	14
432.683	16
433.464	16
434.244	17
435.024	17
435.804	18
436.584	19
437.364	18
438.144	19
438.924	20
439.704	23
440.483	22
441.263	22
442.042	25
442.822	27
443.601	30
444.38	28
445.16	32
445.939	36
446.718	34
447.497	39
448.276	44
449.054	46
449.833	52
450.612	51
451.391	57
452.169	62
452.948	70
453.726	74
454.504	89
455.282	89
456.061	100
456.839	112
457.617	124
458.395	140
459.172	157
459.95	175
460.728	189
461.506	213
462.283	238
463.061	268
463.838	296
464.615	331
465.393	365
466.17	410
466.947	470
467.724	508
468.501	551
469.278	640
470.055	699
470.831	770
471.608	863
472.385	956
473.161	1056
473.938	1191
474.714	1294
475.49	1442
476.266	1598
477.043	1758
477.819	1928
478.595	2141
479.371	2358
480.146	2580
480.922	2846
481.698	3142
482.473	3439
483.249	3791
484.024	4168
484.8	4568
485.575	5007
486.35	5472
487.126	5995
487.901	6582
488.676	7223
489.451	7882
490.225	8617
491	9366
491.775	10247
492.55	11146
493.324	12067
494.099	13018
494.873	13982
495.647	15080
496.422	16181
497.196	17362
497.97	18497
498.744	19649
499.518	20797
500.292	21888
501.066	22901
501.839	23941
502.613	24860
503.387	25618
504.16	26262
504.934	26638
505.707	26920
506.48	27030
507.253	26982
508.027	26767
508.8	26504
509.573	26160
510.346	25589
511.118	24848
511.891	24085
512.664	23293
513.437	22518
514.209	21573
514.982	20705
515.754	19853
516.526	18997
517.298	18188
518.071	17304
518.843	16653
519.615	16079
520.387	15377
521.159	14804
521.93	14205
522.702	13662
523.474	13093
524.245	12478
525.017	12009
525.788	11549
526.56	11048
527.331	10518
528.102	10039
528.873	9609
529.644	9093
530.415	8710
531.186	8229
531.957	7839
532.728	7447
533.498	7082
534.269	6662
535.039	6296
535.81	5950
536.58	5642
537.351	5309
538.121	5012
538.891	4747
539.661	4476
540.431	4231
541.201	3985
541.971	3796
542.741	3603
543.51	3410
544.28	3280
545.05	3106
545.819	2922
546.588	2774
547.358	2661
548.127	2525
548.896	2370
549.665	2274
550.434	2148
551.203	2034
551.972	1939
552.741	1819
553.51	1713
554.278	1631
555.047	1535
555.815	1457
556.584	1372
557.352	1297
558.121	1225
558.889	1166
559.657	1085
560.425	1031
561.193	977
561.961	914
562.729	871
563.496	815
564.264	779
565.032	728
565.799	692
566.567	650
567.334	618
568.101	578
568.869	549
569.636	514
570.403	486
571.17	456
571.937	439
572.704	414
573.471	389
574.237	368
575.004	357
575.771	324
576.537	305
577.303	289
578.07	273
578.836	254
579.602	238
580.368	226
581.134	221
581.9	209
582.666	190
583.432	180
584.198	176
584.964	170
585.729	158
586.495	149
587.26	141
588.025	134
588.791	126
589.556	118
590.321	114
591.086	113
591.851	106
592.616	103
593.381	95
594.146	87
594.911	86
595.675	84
596.44	74
597.204	75
597.969	65
598.733	69
599.497	64
600.261	65
601.025	62
601.79	51
602.553	52
603.317	50
604.081	50
604.845	50
605.609	44
606.372	43
607.136	41
607.899	39
608.662	38
609.426	33
610.189	36
610.952	32
611.715	32
612.478	30
613.241	30
614.004	26
614.767	28
615.529	25
616.292	28
617.055	26
617.817	23
618.579	26
619.342	22
620.104	21
620.866	22
621.628	21
622.39	20
623.152	18
623.914	19
624.676	18
625.438	15
626.199	18
626.961	18
627.722	14
628.484	14
629.245	12
630.006	17
630.768	11
631.529	13
632.29	15
633.051	12
633.812	13
634.573	13
635.333	11
636.094	13
636.855	11
637.615	11
638.376	8
639.136	12
639.896	10
640.657	10
641.417	10
642.177	11
642.937	11
643.697	10
644.457	8
645.216	6
645.976	9
646.736	8
647.495	7
648.255	9
649.014	8
649.774	9
650.533	7
651.292	5
652.051	6
652.81	7
653.569	6
654.328	6
655.087	7
655.846	5
656.604	10
657.363	8
658.121	6
658.88	8
659.638	8
660.397	7
661.155	4
661.913	7
662.671	6
663.429	4
664.187	6
664.945	4
665.703	6
666.46	7
667.218	3
667.976	7
668.733	2
669.49	4
670.248	6
671.005	6
671.762	3
672.519	4
673.276	6
674.033	5
674.79	5
675.547	5
676.304	2
677.06	6
677.817	6
678.574	5
679.33	3
680.086	4
680.843	4
681.599	4
682.355	5
683.111	5
683.867	6
684.623	2
685.379	4
686.135	6
686.89	2
687.646	5
688.402	1
689.157	5
689.912	3
690.668	2
691.423	3
692.178	1
692.933	5
693.688	4
694.443	6
695.198	6
695.953	4
696.708	5
697.462	4
698.217	4
698.972	6
699.726	4
700.48	4
701.235	2
701.989	3
702.743	3
703.497	4
704.251	3
705.005	3
705.759	4
706.513	1
707.266	3
708.02	3
708.774	2
709.527	4
710.28	2
711.034	1
711.787	3
712.54	2
713.293	3
714.046	4
714.799	4
715.552	6
716.305	4
717.058	5
717.81	5
718.563	3
719.315	6
720.068	4
720.82	4
721.573	4
722.325	3
723.077	3
723.829	3
724.581	6
725.333	5
726.085	3
726.836	4
727.588	4
728.34	4
729.091	5
729.843	5
730.594	7
731.346	6
732.097	4
732.848	6
733.599	5
734.35	5
735.101	4
735.852	5
736.603	4
737.354	4
738.104	5
738.855	6
739.605	3
740.356	6
741.106	5
741.856	5
742.607	4
743.357	5
744.107	0
744.857	7
745.607	4
746.357	8
747.106	6
747.856	8
748.606	4
749.355	3
750.105	7
750.854	7
751.603	5
752.353	7
753.102	4
753.851	7
754.6	6
755.349	5
756.098	4
756.847	6
757.595	7
758.344	6
759.093	6
759.841	5
760.589	8
761.338	5
762.086	6
762.834	6
763.582	4
764.331	8
765.079	8
765.826	6
766.574	7
767.322	7
768.07	8
768.817	5
769.565	6
770.312	6
771.06	6
771.807	9
772.554	7
773.302	8
774.049	6
774.796	7
775.543	9
776.29	7
777.036	7
777.783	8
778.53	8
779.276	10
780.023	10
780.769	8
781.516	9
782.262	9
783.008	7
783.754	10
784.5	8
785.246	7
785.992	9
786.738	8
787.484	9
788.23	11
788.975	9
789.721	6
790.466	9
791.212	9
791.957	8
792.702	8
793.447	8
794.193	6
794.938	10
795.683	8
796.427	9
797.172	8
797.917	8
798.662	8
799.406	4
800.151	9
800.895	8
801.64	6
802.384	6
803.128	6
803.872	7
804.616	7
805.36	8
806.104	4
806.848	4
807.592	7
808.336	5
809.079	5
809.823	5
810.566	7
811.31	7
812.053	6
812.796	5
813.539	6
814.283	5
815.026	5
815.769	6
816.511	5
817.254	3
817.997	6
818.74	5
819.482	5
820.225	2
820.967	8
821.71	5
822.452	2
823.194	1
823.936	4
824.678	5
825.42	4
826.162	6
826.904	4
827.646	5
828.388	2
829.129	4
829.871	4
830.612	4
831.354	4
832.095	5
832.836	5
833.577	4
834.319	2
835.06	3
835.801	2
836.542	3
837.282	3
838.023	3
838.764	3
839.504	4
840.245	6
840.985	2
841.726	1
842.466	6
843.206	2
843.946	4
844.687	2
845.427	5
846.166	6
846.906	1
847.646	5
848.386	2
849.125	4
849.865	2
850.605	4
851.344	3
852.083	2
852.823	2
853.562	4
854.301	4
855.04	4
855.779	3
856.518	4
857.257	2
857.995	3
858.734	2
859.473	1
860.211	2
860.95	0
861.688	2
862.426	2
863.165	3
863.903	0
864.641	2
865.379	3
866.117	2
866.855	2
867.593	1
868.33	0
869.068	3
869.806	0
870.543	1
871.28	3
872.018	1
872.755	2
873.492	4
874.229	3
874.967	3
875.703	4
876.44	0
877.177	2
877.914	0
878.651	2
879.387	2
880.124	1
880.86	2
881.597	0
882.333	2
883.069	2
883.806	2
884.542	2
885.278	-2
886.014	1
886.749	1
887.485	2
888.221	1
888.957	-1
889.692	1
890.428	2
891.163	0
891.899	1
892.634	-2
893.369	3
894.104	2
894.839	1
895.574	0
896.309	2
897.044	1
897.779	1
898.514	2
899.248	1
899.983	2
900.717	1
901.452	0
902.186	0
902.92	0
903.654	0
904.389	0
905.123	0
905.857	1
906.59	2
907.324	0
908.058	1
908.792	3
909.525	0
910.259	2
910.992	2
911.726	-1
912.459	1
913.192	2
913.925	1
914.658	-2
915.391	-2
916.124	1
916.857	-1
917.59	1
918.323	2
919.055	-1
919.788	2
920.521	2
921.253	1
921.985	-1
922.718	1
923.45	1
924.182	0
924.914	1
925.646	2
926.378	2
927.11	2
927.841	0
928.573	-2
929.305	2
930.036	0
930.768	0
931.499	2
932.23	-4
932.962	1
933.693	0
934.424	1
935.155	1
935.886	1
936.617	1
937.348	1
938.078	0
938.809	-1
939.54	1
940.27	2
941.001	1
941.731	1
942.461	-1
943.191	0
943.922	0
944.652	-1
945.382	1
946.112	2
946.841	-1
947.571	2
948.301	0
949.031	-2
949.76	-1
950.49	0
951.219	2
951.948	1
952.678	1
953.407	2
954.136	1
954.865	1
955.594	-1
956.323	0
957.052	-1
957.78	1
958.509	3
959.238	2
959.966	-2
960.695	3
961.423	1
962.151	0
962.88	2
963.608	1
964.336	1
965.064	1
965.792	-3
966.52	1
967.247	1
967.975	0
968.703	0
969.43	1
970.158	0
970.885	2
971.613	0
972.34	0
973.067	-2
973.794	-2
974.521	0
975.248	0
975.975	0
976.702	1
977.429	0
978.156	0
978.882	1
979.609	0
980.335	-1
981.062	0
981.788	0
982.514	2
983.24	2
983.967	-1
984.693	1
985.419	1
986.144	0
986.87	1
987.596	0
988.322	-1
989.047	2
989.773	2
990.498	0
991.224	2
991.949	2
992.674	-2
993.399	3
994.124	0
994.849	-1
995.574	-1
996.299	-1
997.024	1
997.749	-1
998.473	0
999.198	1
999.922	1
1000.647	0
1001.371	3
1002.095	0
1002.82	-1
1003.544	-1
1004.268	2
1004.992	0
1005.716	-2
1006.439	2
1007.163	0
1007.887	3
1008.611	1
1009.334	1
1010.058	0
1010.781	0
1011.504	1
1012.228	0
1012.951	-3
1013.674	0
1014.397	1
1015.12	1
