节点500_285_QEPB04081__282__15-00-14-797.txt的数据

Date: Wed Nov 12 15:00:14 CST 2025
User: PC
Spectrometer: QEPB0408
触发模式: 0
积分时间 (秒): 1.000000E-2
Scans to average: 1
启用暗噪声校正: true
启用非线性校正: false
滑动平均宽度: 0
X轴模式: Wavelengths
Number of Pixels in Spectrum: 1044
>>>>>Begin Spectral Data<<<<<
220.843	2.88
221.644	0.88
222.444	-0.12
223.244	0.88
224.045	3.88
224.845	1.88
225.645	3.88
226.445	1.88
227.245	3.88
228.045	1.88
228.845	3.88
229.645	-0.12
230.444	3.88
231.244	1.88
232.043	2.88
232.843	0.88
233.642	3.88
234.442	5.88
235.241	5.88
236.04	3.88
236.839	3.88
237.638	3.88
238.437	4.88
239.236	3.88
240.035	4.88
240.833	4.88
241.632	2.88
242.43	4.88
243.229	2.88
244.027	3.88
244.826	3.88
245.624	5.88
246.422	4.88
247.22	2.88
248.018	3.88
248.816	5.88
249.614	5.88
250.412	6.88
251.21	4.88
252.007	7.88
252.805	7.88
253.602	6.88
254.4	8.88
255.197	7.88
255.994	7.88
256.791	4.88
257.589	9.88
258.386	9.88
259.183	10.88
259.979	10.88
260.776	9.88
261.573	10.88
262.37	8.88
263.166	9.88
263.963	11.88
264.759	9.88
265.556	10.88
266.352	10.88
267.148	13.88
267.944	13.88
268.74	13.88
269.536	12.88
270.332	15.88
271.128	16.88
271.924	13.88
272.719	15.88
273.515	17.88
274.311	18.88
275.106	16.88
275.901	16.88
276.697	16.88
277.492	15.88
278.287	17.88
279.082	16.88
279.877	16.88
280.672	21.88
281.467	17.88
282.262	18.88
283.056	18.88
283.851	19.88
284.646	20.88
285.44	18.88
286.234	17.88
287.029	18.88
287.823	18.88
288.617	19.88
289.411	18.88
290.205	17.88
290.999	16.88
291.793	18.88
292.587	19.88
293.381	17.88
294.174	18.88
294.968	17.88
295.761	18.88
296.555	14.88
297.348	16.88
298.141	15.88
298.935	19.88
299.728	13.88
300.521	12.88
301.314	17.88
302.107	13.88
302.899	13.88
303.692	12.88
304.485	13.88
305.277	11.88
306.07	12.88
306.862	12.88
307.655	11.88
308.447	12.88
309.239	11.88
310.031	11.88
310.823	10.88
311.615	9.88
312.407	10.88
313.199	8.88
313.991	11.88
314.783	8.88
315.574	8.88
316.366	9.88
317.157	6.88
317.949	6.88
318.74	11.88
319.531	6.88
320.322	6.88
321.113	7.88
321.904	6.88
322.695	8.88
323.486	6.88
324.277	6.88
325.068	5.88
325.858	8.88
326.649	3.88
327.439	8.88
328.23	5.88
329.02	7.88
329.81	5.88
330.6	6.88
331.391	5.88
332.181	6.88
332.971	7.88
333.76	5.88
334.55	7.88
335.34	6.88
336.13	5.88
336.919	6.88
337.709	7.88
338.498	6.88
339.287	3.88
340.077	8.88
340.866	8.88
341.655	5.88
342.444	4.88
343.233	5.88
344.022	6.88
344.811	8.88
345.6	5.88
346.388	7.88
347.177	3.88
347.965	6.88
348.754	4.88
349.542	6.88
350.33	9.88
351.119	5.88
351.907	6.88
352.695	4.88
353.483	5.88
354.271	5.88
355.059	6.88
355.846	6.88
356.634	4.88
357.422	7.88
358.209	5.88
358.997	3.88
359.784	5.88
360.571	4.88
361.359	5.88
362.146	4.88
362.933	3.88
363.72	5.88
364.507	3.88
365.294	4.88
366.081	3.88
366.867	3.88
367.654	7.88
368.44	6.88
369.227	4.88
370.013	4.88
370.8	3.88
371.586	4.88
372.372	4.88
373.158	7.88
373.944	5.88
374.73	4.88
375.516	6.88
376.302	5.88
377.088	5.88
377.873	4.88
378.659	3.88
379.445	5.88
380.23	5.88
381.015	4.88
381.801	3.88
382.586	7.88
383.371	4.88
384.156	5.88
384.941	5.88
385.726	6.88
386.511	5.88
387.296	4.88
388.08	5.88
388.865	6.88
389.649	6.88
390.434	4.88
391.218	5.88
392.003	3.88
392.787	5.88
393.571	6.88
394.355	3.88
395.139	4.88
395.923	5.88
396.707	6.88
397.491	6.88
398.274	8.88
399.058	5.88
399.842	8.88
400.625	7.88
401.408	7.88
402.192	5.88
402.975	6.88
403.758	5.88
404.541	8.88
405.324	9.88
406.107	6.88
406.89	6.88
407.673	6.88
408.456	6.88
409.238	9.88
410.021	9.88
410.803	9.88
411.586	9.88
412.368	9.88
413.151	8.88
413.933	8.88
414.715	8.88
415.497	9.88
416.279	8.88
417.061	9.88
417.843	9.88
418.624	10.88
419.406	11.88
420.188	8.88
420.969	10.88
421.751	10.88
422.532	8.88
423.313	9.88
424.095	8.88
424.876	9.88
425.657	9.88
426.438	13.88
427.219	12.88
428	13.88
428.78	13.88
429.561	10.88
430.342	15.88
431.122	14.88
431.903	15.88
432.683	14.88
433.464	14.88
434.244	17.88
435.024	15.88
435.804	15.88
436.584	15.88
437.364	18.88
438.144	20.88
438.924	19.88
439.704	19.88
440.483	24.88
441.263	20.88
442.042	25.88
442.822	26.88
443.601	30.88
444.38	31.88
445.16	30.88
445.939	36.88
446.718	35.88
447.497	38.88
448.276	42.88
449.054	45.88
449.833	50.88
450.612	52.88
451.391	58.88
452.169	61.88
452.948	66.88
453.726	76.88
454.504	80.88
455.282	90.88
456.061	93.88
456.839	107.88
457.617	125.88
458.395	136.88
459.172	146.88
459.95	163.88
460.728	184.88
461.506	207.88
462.283	227.88
463.061	256.88
463.838	287.88
464.615	315.88
465.393	362.88
466.17	391.88
466.947	435.88
467.724	494.88
468.501	548.88
469.278	605.88
470.055	685.88
470.831	750.88
471.608	844.88
472.385	930.88
473.161	1045.88
473.938	1150.88
474.714	1286.88
475.49	1432.88
476.266	1559.88
477.043	1736.88
477.819	1915.88
478.595	2150.88
479.371	2353.88
480.146	2584.88
480.922	2850.88
481.698	3145.88
482.473	3497.88
483.249	3843.88
484.024	4205.88
484.8	4681.88
485.575	5126.88
486.35	5613.88
487.126	6171.88
487.901	6767.88
488.676	7437.88
489.451	8177.88
490.225	8918.88
491	9783.88
491.775	10672.88
492.55	11661.88
493.324	12634.88
494.099	13603.88
494.873	14694.88
495.647	15838.88
496.422	17034.88
497.196	18231.88
497.97	19462.88
498.744	20632.88
499.518	21852.88
500.292	22961.88
501.066	24079.88
501.839	25004.88
502.613	25846.88
503.387	26605.88
504.16	27311.88
504.934	27573.88
505.707	27691.88
506.48	27749.88
507.253	27645.88
508.027	27371.88
508.8	27008.88
509.573	26508.88
510.346	25840.88
511.118	25075.88
511.891	24209.88
512.664	23352.88
513.437	22484.88
514.209	21544.88
514.982	20629.88
515.754	19707.88
516.526	18816.88
517.298	18042.88
518.071	17239.88
518.843	16535.88
519.615	15891.88
520.387	15284.88
521.159	14686.88
521.93	14094.88
522.702	13545.88
523.474	12987.88
524.245	12412.88
525.017	11852.88
525.788	11440.88
526.56	10890.88
527.331	10344.88
528.102	9922.88
528.873	9472.88
529.644	8986.88
530.415	8488.88
531.186	8081.88
531.957	7655.88
532.728	7276.88
533.498	6909.88
534.269	6523.88
535.039	6107.88
535.81	5786.88
536.58	5480.88
537.351	5143.88
538.121	4902.88
538.891	4621.88
539.661	4381.88
540.431	4119.88
541.201	3922.88
541.971	3685.88
542.741	3502.88
543.51	3310.88
544.28	3167.88
545.05	3008.88
545.819	2841.88
546.588	2738.88
547.358	2608.88
548.127	2450.88
548.896	2358.88
549.665	2227.88
550.434	2084.88
551.203	1995.88
551.972	1889.88
552.741	1773.88
553.51	1684.88
554.278	1581.88
555.047	1495.88
555.815	1391.88
556.584	1328.88
557.352	1255.88
558.121	1173.88
558.889	1121.88
559.657	1059.88
560.425	992.88
561.193	938.88
561.961	884.88
562.729	834.88
563.496	789.88
564.264	754.88
565.032	707.88
565.799	676.88
566.567	630.88
567.334	594.88
568.101	563.88
568.869	531.88
569.636	503.88
570.403	472.88
571.17	446.88
571.937	418.88
572.704	392.88
573.471	377.88
574.237	356.88
575.004	335.88
575.771	322.88
576.537	291.88
577.303	284.88
578.07	269.88
578.836	243.88
579.602	237.88
580.368	214.88
581.134	216.88
581.9	198.88
582.666	186.88
583.432	176.88
584.198	169.88
584.964	157.88
585.729	151.88
586.495	139.88
587.26	139.88
588.025	133.88
588.791	120.88
589.556	111.88
590.321	112.88
591.086	103.88
591.851	102.88
592.616	88.88
593.381	91.88
594.146	86.88
594.911	81.88
595.675	80.88
596.44	75.88
597.204	67.88
597.969	70.88
598.733	63.88
599.497	67.88
600.261	57.88
601.025	55.88
601.79	50.88
602.553	52.88
603.317	48.88
604.081	47.88
604.845	45.88
605.609	40.88
606.372	39.88
607.136	40.88
607.899	36.88
608.662	35.88
609.426	34.88
610.189	35.88
610.952	32.88
611.715	29.88
612.478	26.88
613.241	27.88
614.004	27.88
614.767	28.88
615.529	25.88
616.292	22.88
617.055	24.88
617.817	22.88
618.579	23.88
619.342	20.88
620.104	20.88
620.866	22.88
621.628	20.88
622.39	17.88
623.152	17.88
623.914	18.88
624.676	17.88
625.438	13.88
626.199	19.88
626.961	15.88
627.722	14.88
628.484	12.88
629.245	13.88
630.006	12.88
630.768	14.88
631.529	13.88
632.29	12.88
633.051	13.88
633.812	12.88
634.573	11.88
635.333	12.88
636.094	8.88
636.855	10.88
637.615	8.88
638.376	8.88
639.136	10.88
639.896	8.88
640.657	7.88
641.417	8.88
642.177	9.88
642.937	9.88
643.697	7.88
644.457	9.88
645.216	9.88
645.976	7.88
646.736	7.88
647.495	6.88
648.255	8.88
649.014	9.88
649.774	9.88
650.533	5.88
651.292	7.88
652.051	8.88
652.81	6.88
653.569	6.88
654.328	6.88
655.087	5.88
655.846	6.88
656.604	5.88
657.363	6.88
658.121	8.88
658.88	5.88
659.638	5.88
660.397	4.88
661.155	5.88
661.913	5.88
662.671	6.88
663.429	4.88
664.187	4.88
664.945	3.88
665.703	6.88
666.46	5.88
667.218	5.88
667.976	7.88
668.733	7.88
669.49	5.88
670.248	3.88
671.005	5.88
671.762	6.88
672.519	3.88
673.276	2.88
674.033	3.88
674.79	3.88
675.547	2.88
676.304	3.88
677.06	5.88
677.817	3.88
678.574	5.88
679.33	4.88
680.086	5.88
680.843	7.88
681.599	2.88
682.355	3.88
683.111	2.88
683.867	3.88
684.623	5.88
685.379	3.88
686.135	5.88
686.89	0.88
687.646	4.88
688.402	4.88
689.157	1.88
689.912	4.88
690.668	1.88
691.423	3.88
692.178	4.88
692.933	5.88
693.688	3.88
694.443	3.88
695.198	4.88
695.953	4.88
696.708	3.88
697.462	2.88
698.217	4.88
698.972	2.88
699.726	3.88
700.48	3.88
701.235	1.88
701.989	4.88
702.743	2.88
703.497	2.88
704.251	8.88
705.005	4.88
705.759	3.88
706.513	1.88
707.266	5.88
708.02	3.88
708.774	5.88
709.527	4.88
710.28	3.88
711.034	4.88
711.787	2.88
712.54	3.88
713.293	4.88
714.046	3.88
714.799	2.88
715.552	0.88
716.305	1.88
717.058	1.88
717.81	4.88
718.563	3.88
719.315	3.88
720.068	5.88
720.82	2.88
721.573	4.88
722.325	3.88
723.077	2.88
723.829	5.88
724.581	3.88
725.333	3.88
726.085	2.88
726.836	2.88
727.588	4.88
728.34	3.88
729.091	2.88
729.843	1.88
730.594	1.88
731.346	3.88
732.097	0.88
732.848	3.88
733.599	2.88
734.35	4.88
735.101	3.88
735.852	2.88
736.603	5.88
737.354	5.88
738.104	2.88
738.855	2.88
739.605	3.88
740.356	4.88
741.106	4.88
741.856	3.88
742.607	1.88
743.357	5.88
744.107	4.88
744.857	5.88
745.607	2.88
746.357	6.88
747.106	7.88
747.856	4.88
748.606	6.88
749.355	4.88
750.105	2.88
750.854	5.88
751.603	5.88
752.353	7.88
753.102	5.88
753.851	6.88
754.6	2.88
755.349	6.88
756.098	5.88
756.847	4.88
757.595	5.88
758.344	7.88
759.093	8.88
759.841	6.88
760.589	6.88
761.338	5.88
762.086	6.88
762.834	5.88
763.582	4.88
764.331	7.88
765.079	7.88
765.826	7.88
766.574	7.88
767.322	5.88
768.07	6.88
768.817	8.88
769.565	6.88
770.312	7.88
771.06	6.88
771.807	7.88
772.554	7.88
773.302	8.88
774.049	7.88
774.796	9.88
775.543	8.88
776.29	9.88
777.036	8.88
777.783	7.88
778.53	6.88
779.276	7.88
780.023	9.88
780.769	8.88
781.516	8.88
782.262	8.88
783.008	9.88
783.754	8.88
784.5	8.88
785.246	8.88
785.992	11.88
786.738	7.88
787.484	10.88
788.23	6.88
788.975	9.88
789.721	8.88
790.466	8.88
791.212	8.88
791.957	8.88
792.702	5.88
793.447	7.88
794.193	9.88
794.938	5.88
795.683	7.88
796.427	7.88
797.172	7.88
797.917	6.88
798.662	9.88
799.406	7.88
800.151	8.88
800.895	5.88
801.64	6.88
802.384	7.88
803.128	7.88
803.872	5.88
804.616	6.88
805.36	8.88
806.104	5.88
806.848	6.88
807.592	5.88
808.336	7.88
809.079	5.88
809.823	4.88
810.566	7.88
811.31	4.88
812.053	5.88
812.796	5.88
813.539	5.88
814.283	7.88
815.026	0.88
815.769	6.88
816.511	5.88
817.254	4.88
817.997	2.88
818.74	2.88
819.482	4.88
820.225	6.88
820.967	6.88
821.71	4.88
822.452	2.88
823.194	4.88
823.936	3.88
824.678	5.88
825.42	4.88
826.162	3.88
826.904	3.88
827.646	1.88
828.388	7.88
829.129	4.88
829.871	2.88
830.612	3.88
831.354	3.88
832.095	4.88
832.836	1.88
833.577	4.88
834.319	2.88
835.06	1.88
835.801	3.88
836.542	2.88
837.282	2.88
838.023	3.88
838.764	3.88
839.504	2.88
840.245	4.88
840.985	2.88
841.726	3.88
842.466	2.88
843.206	2.88
843.946	1.88
844.687	2.88
845.427	1.88
846.166	3.88
846.906	3.88
847.646	3.88
848.386	3.88
849.125	2.88
849.865	2.88
850.605	2.88
851.344	2.88
852.083	2.88
852.823	2.88
853.562	1.88
854.301	1.88
855.04	3.88
855.779	1.88
856.518	0.88
857.257	3.88
857.995	3.88
858.734	1.88
859.473	0.88
860.211	1.88
860.95	1.88
861.688	1.88
862.426	1.88
863.165	0.88
863.903	5.88
864.641	1.88
865.379	2.88
866.117	1.88
866.855	3.88
867.593	1.88
868.33	-0.12
869.068	1.88
869.806	2.88
870.543	1.88
871.28	3.88
872.018	-0.12
872.755	1.88
873.492	1.88
874.229	4.88
874.967	2.88
875.703	1.88
876.44	0.88
877.177	2.88
877.914	1.88
878.651	0.88
879.387	3.88
880.124	1.88
880.86	1.88
881.597	4.88
882.333	0.88
883.069	2.88
883.806	0.88
884.542	2.88
885.278	2.88
886.014	0.88
886.749	0.88
887.485	-1.12
888.221	-0.12
888.957	3.88
889.692	1.88
890.428	0.88
891.163	-1.12
891.899	-0.12
892.634	0.88
893.369	-0.12
894.104	1.88
894.839	-0.12
895.574	0.88
896.309	1.88
897.044	-0.12
897.779	0.88
898.514	1.88
899.248	1.88
899.983	1.88
900.717	1.88
901.452	-0.12
902.186	2.88
902.92	1.88
903.654	0.88
904.389	-0.12
905.123	2.88
905.857	-0.12
906.59	0.88
907.324	3.88
908.058	0.88
908.792	0.88
909.525	0.88
910.259	0.88
910.992	0.88
911.726	-0.12
912.459	-0.12
913.192	-0.12
913.925	-1.12
914.658	0.88
915.391	-0.12
916.124	0.88
916.857	1.88
917.59	-1.12
918.323	-0.12
919.055	-0.12
919.788	2.88
920.521	0.88
921.253	0.88
921.985	-0.12
922.718	-2.12
923.45	0.88
924.182	-1.12
924.914	1.88
925.646	2.88
926.378	-0.12
927.11	1.88
927.841	-1.12
928.573	1.88
929.305	-2.12
930.036	-0.12
930.768	1.88
931.499	-0.12
932.23	2.88
932.962	-0.12
933.693	-0.12
934.424	-2.12
935.155	0.88
935.886	-0.12
936.617	-0.12
937.348	1.88
938.078	-2.12
938.809	-0.12
939.54	-0.12
940.27	-0.12
941.001	0.88
941.731	1.88
942.461	-0.12
943.191	-0.12
943.922	-2.12
944.652	-1.12
945.382	-0.12
946.112	-0.12
946.841	1.88
947.571	-0.12
948.301	1.88
949.031	-2.12
949.76	0.88
950.49	1.88
951.219	1.88
951.948	-0.12
952.678	0.88
953.407	0.88
954.136	-1.12
954.865	1.88
955.594	0.88
956.323	-1.12
957.052	0.88
957.78	-0.12
958.509	2.88
959.238	0.88
959.966	0.88
960.695	-0.12
961.423	-1.12
962.151	0.88
962.88	0.88
963.608	0.88
964.336	-3.12
965.064	-0.12
965.792	1.88
966.52	0.88
967.247	0.88
967.975	-0.12
968.703	0.88
969.43	2.88
970.158	-1.12
970.885	-2.12
971.613	-2.12
972.34	0.88
973.067	-3.12
973.794	0.88
974.521	-0.12
975.248	0.88
975.975	1.88
976.702	-0.12
977.429	1.88
978.156	-0.12
978.882	-0.12
979.609	0.88
980.335	-1.12
981.062	1.88
981.788	-0.12
982.514	-0.12
983.24	-0.12
983.967	-0.12
984.693	-0.12
985.419	-1.12
986.144	0.88
986.87	0.88
987.596	0.88
988.322	0.88
989.047	-0.12
989.773	1.88
990.498	-2.12
991.224	-0.12
991.949	0.88
992.674	-0.12
993.399	-2.12
994.124	0.88
994.849	-0.12
995.574	0.88
996.299	0.88
997.024	2.88
997.749	-1.12
998.473	2.88
999.198	-0.12
999.922	1.88
1000.647	-0.12
1001.371	3.88
1002.095	-2.12
1002.82	-0.12
1003.544	-2.12
1004.268	1.88
1004.992	2.88
1005.716	1.88
1006.439	-0.12
1007.163	0.88
1007.887	1.88
1008.611	-0.12
1009.334	-1.12
1010.058	-0.12
1010.781	2.88
1011.504	0.88
1012.228	1.88
1012.951	-0.12
1013.674	-0.12
1014.397	-0.12
1015.12	0.88
