节点500_285_QEPB04081__558__15-04-50-249.txt的数据

Date: Wed Nov 12 15:04:50 CST 2025
User: PC
Spectrometer: QEPB0408
触发模式: 0
积分时间 (秒): 1.000000E-2
Scans to average: 1
启用暗噪声校正: true
启用非线性校正: false
滑动平均宽度: 0
X轴模式: Wavelengths
Number of Pixels in Spectrum: 1044
>>>>>Begin Spectral Data<<<<<
220.843	1.25
221.644	1.25
222.444	3.25
223.244	1.25
224.045	3.25
224.845	4.25
225.645	4.25
226.445	3.25
227.245	2.25
228.045	6.25
228.845	3.25
229.645	2.25
230.444	3.25
231.244	3.25
232.043	4.25
232.843	6.25
233.642	5.25
234.442	2.25
235.241	5.25
236.04	5.25
236.839	5.25
237.638	7.25
238.437	3.25
239.236	5.25
240.035	5.25
240.833	6.25
241.632	4.25
242.43	3.25
243.229	3.25
244.027	5.25
244.826	6.25
245.624	2.25
246.422	7.25
247.22	4.25
248.018	3.25
248.816	5.25
249.614	6.25
250.412	7.25
251.21	8.25
252.007	7.25
252.805	8.25
253.602	7.25
254.4	9.25
255.197	6.25
255.994	6.25
256.791	9.25
257.589	10.25
258.386	8.25
259.183	9.25
259.979	10.25
260.776	12.25
261.573	10.25
262.37	14.25
263.166	9.25
263.963	12.25
264.759	7.25
265.556	10.25
266.352	12.25
267.148	12.25
267.944	14.25
268.74	14.25
269.536	14.25
270.332	12.25
271.128	15.25
271.924	17.25
272.719	15.25
273.515	17.25
274.311	15.25
275.106	17.25
275.901	17.25
276.697	15.25
277.492	16.25
278.287	16.25
279.082	19.25
279.877	18.25
280.672	16.25
281.467	18.25
282.262	18.25
283.056	15.25
283.851	18.25
284.646	21.25
285.44	18.25
286.234	21.25
287.029	18.25
287.823	18.25
288.617	20.25
289.411	17.25
290.205	19.25
290.999	18.25
291.793	20.25
292.587	17.25
293.381	14.25
294.174	15.25
294.968	17.25
295.761	15.25
296.555	15.25
297.348	15.25
298.141	14.25
298.935	15.25
299.728	12.25
300.521	15.25
301.314	11.25
302.107	12.25
302.899	12.25
303.692	13.25
304.485	12.25
305.277	14.25
306.07	13.25
306.862	12.25
307.655	12.25
308.447	12.25
309.239	14.25
310.031	11.25
310.823	12.25
311.615	11.25
312.407	8.25
313.199	11.25
313.991	9.25
314.783	10.25
315.574	8.25
316.366	8.25
317.157	9.25
317.949	7.25
318.74	11.25
319.531	9.25
320.322	11.25
321.113	7.25
321.904	8.25
322.695	8.25
323.486	7.25
324.277	5.25
325.068	6.25
325.858	9.25
326.649	6.25
327.439	7.25
328.23	5.25
329.02	5.25
329.81	9.25
330.6	7.25
331.391	6.25
332.181	6.25
332.971	6.25
333.76	9.25
334.55	6.25
335.34	7.25
336.13	7.25
336.919	9.25
337.709	7.25
338.498	5.25
339.287	7.25
340.077	8.25
340.866	8.25
341.655	8.25
342.444	7.25
343.233	7.25
344.022	10.25
344.811	7.25
345.6	3.25
346.388	9.25
347.177	7.25
347.965	6.25
348.754	7.25
349.542	6.25
350.33	5.25
351.119	6.25
351.907	7.25
352.695	7.25
353.483	6.25
354.271	7.25
355.059	5.25
355.846	5.25
356.634	7.25
357.422	7.25
358.209	6.25
358.997	3.25
359.784	6.25
360.571	5.25
361.359	7.25
362.146	5.25
362.933	7.25
363.72	7.25
364.507	5.25
365.294	7.25
366.081	6.25
366.867	4.25
367.654	4.25
368.44	6.25
369.227	6.25
370.013	4.25
370.8	6.25
371.586	6.25
372.372	2.25
373.158	4.25
373.944	4.25
374.73	7.25
375.516	5.25
376.302	4.25
377.088	5.25
377.873	5.25
378.659	7.25
379.445	4.25
380.23	6.25
381.015	5.25
381.801	6.25
382.586	8.25
383.371	6.25
384.156	6.25
384.941	5.25
385.726	4.25
386.511	6.25
387.296	6.25
388.08	6.25
388.865	6.25
389.649	7.25
390.434	6.25
391.218	7.25
392.003	6.25
392.787	6.25
393.571	7.25
394.355	5.25
395.139	6.25
395.923	6.25
396.707	9.25
397.491	5.25
398.274	8.25
399.058	5.25
399.842	6.25
400.625	6.25
401.408	8.25
402.192	8.25
402.975	9.25
403.758	8.25
404.541	7.25
405.324	8.25
406.107	8.25
406.89	6.25
407.673	7.25
408.456	7.25
409.238	5.25
410.021	9.25
410.803	7.25
411.586	6.25
412.368	12.25
413.151	7.25
413.933	10.25
414.715	7.25
415.497	9.25
416.279	10.25
417.061	10.25
417.843	9.25
418.624	8.25
419.406	12.25
420.188	12.25
420.969	10.25
421.751	11.25
422.532	12.25
423.313	12.25
424.095	12.25
424.876	11.25
425.657	10.25
426.438	12.25
427.219	12.25
428	11.25
428.78	11.25
429.561	13.25
430.342	13.25
431.122	11.25
431.903	16.25
432.683	16.25
433.464	14.25
434.244	14.25
435.024	16.25
435.804	18.25
436.584	19.25
437.364	19.25
438.144	19.25
438.924	20.25
439.704	20.25
440.483	23.25
441.263	25.25
442.042	27.25
442.822	26.25
443.601	29.25
444.38	30.25
445.16	30.25
445.939	34.25
446.718	39.25
447.497	39.25
448.276	43.25
449.054	47.25
449.833	51.25
450.612	59.25
451.391	57.25
452.169	70.25
452.948	70.25
453.726	77.25
454.504	83.25
455.282	99.25
456.061	110.25
456.839	116.25
457.617	131.25
458.395	147.25
459.172	157.25
459.95	179.25
460.728	198.25
461.506	224.25
462.283	244.25
463.061	279.25
463.838	306.25
464.615	337.25
465.393	378.25
466.17	418.25
466.947	471.25
467.724	516.25
468.501	573.25
469.278	647.25
470.055	702.25
470.831	799.25
471.608	878.25
472.385	969.25
473.161	1063.25
473.938	1203.25
474.714	1315.25
475.49	1445.25
476.266	1593.25
477.043	1768.25
477.819	1934.25
478.595	2131.25
479.371	2343.25
480.146	2590.25
480.922	2841.25
481.698	3120.25
482.473	3440.25
483.249	3765.25
484.024	4123.25
484.8	4523.25
485.575	4939.25
486.35	5428.25
487.126	5944.25
487.901	6500.25
488.676	7079.25
489.451	7751.25
490.225	8425.25
491	9139.25
491.775	10003.25
492.55	10894.25
493.324	11721.25
494.099	12672.25
494.873	13625.25
495.647	14654.25
496.422	15738.25
497.196	16819.25
497.97	17970.25
498.744	19128.25
499.518	20138.25
500.292	21277.25
501.066	22351.25
501.839	23285.25
502.613	24199.25
503.387	24990.25
504.16	25670.25
504.934	26062.25
505.707	26368.25
506.48	26522.25
507.253	26582.25
508.027	26415.25
508.8	26149.25
509.573	25902.25
510.346	25406.25
511.118	24751.25
511.891	24094.25
512.664	23337.25
513.437	22520.25
514.209	21669.25
514.982	20788.25
515.754	19950.25
516.526	19070.25
517.298	18299.25
518.071	17486.25
518.843	16841.25
519.615	16187.25
520.387	15592.25
521.159	14907.25
521.93	14317.25
522.702	13736.25
523.474	13220.25
524.245	12628.25
525.017	12079.25
525.788	11634.25
526.56	11114.25
527.331	10590.25
528.102	10157.25
528.873	9708.25
529.644	9183.25
530.415	8801.25
531.186	8336.25
531.957	7970.25
532.728	7584.25
533.498	7197.25
534.269	6738.25
535.039	6386.25
535.81	6060.25
536.58	5721.25
537.351	5362.25
538.121	5087.25
538.891	4860.25
539.661	4545.25
540.431	4329.25
541.201	4065.25
541.971	3845.25
542.741	3668.25
543.51	3471.25
544.28	3299.25
545.05	3154.25
545.819	3001.25
546.588	2841.25
547.358	2689.25
548.127	2570.25
548.896	2458.25
549.665	2324.25
550.434	2200.25
551.203	2078.25
551.972	1965.25
552.741	1847.25
553.51	1757.25
554.278	1659.25
555.047	1580.25
555.815	1489.25
556.584	1411.25
557.352	1330.25
558.121	1254.25
558.889	1170.25
559.657	1122.25
560.425	1066.25
561.193	991.25
561.961	939.25
562.729	888.25
563.496	830.25
564.264	779.25
565.032	745.25
565.799	705.25
566.567	670.25
567.334	627.25
568.101	595.25
568.869	562.25
569.636	526.25
570.403	511.25
571.17	468.25
571.937	449.25
572.704	419.25
573.471	397.25
574.237	372.25
575.004	348.25
575.771	331.25
576.537	309.25
577.303	296.25
578.07	268.25
578.836	268.25
579.602	245.25
580.368	232.25
581.134	226.25
581.9	210.25
582.666	200.25
583.432	186.25
584.198	186.25
584.964	172.25
585.729	162.25
586.495	154.25
587.26	145.25
588.025	142.25
588.791	128.25
589.556	121.25
590.321	113.25
591.086	112.25
591.851	104.25
592.616	97.25
593.381	93.25
594.146	89.25
594.911	85.25
595.675	82.25
596.44	78.25
597.204	75.25
597.969	72.25
598.733	72.25
599.497	69.25
600.261	61.25
601.025	60.25
601.79	54.25
602.553	57.25
603.317	55.25
604.081	47.25
604.845	50.25
605.609	46.25
606.372	43.25
607.136	44.25
607.899	41.25
608.662	41.25
609.426	35.25
610.189	38.25
610.952	37.25
611.715	35.25
612.478	32.25
613.241	32.25
614.004	29.25
614.767	30.25
615.529	29.25
616.292	28.25
617.055	24.25
617.817	26.25
618.579	24.25
619.342	26.25
620.104	22.25
620.866	20.25
621.628	22.25
622.39	18.25
623.152	18.25
623.914	20.25
624.676	19.25
625.438	18.25
626.199	18.25
626.961	15.25
627.722	14.25
628.484	18.25
629.245	14.25
630.006	15.25
630.768	12.25
631.529	14.25
632.29	12.25
633.051	14.25
633.812	13.25
634.573	12.25
635.333	13.25
636.094	10.25
636.855	11.25
637.615	12.25
638.376	9.25
639.136	11.25
639.896	11.25
640.657	11.25
641.417	10.25
642.177	9.25
642.937	9.25
643.697	10.25
644.457	9.25
645.216	9.25
645.976	10.25
646.736	9.25
647.495	8.25
648.255	11.25
649.014	5.25
649.774	10.25
650.533	7.25
651.292	8.25
652.051	6.25
652.81	7.25
653.569	6.25
654.328	9.25
655.087	8.25
655.846	6.25
656.604	8.25
657.363	8.25
658.121	7.25
658.88	6.25
659.638	3.25
660.397	5.25
661.155	6.25
661.913	2.25
662.671	7.25
663.429	2.25
664.187	5.25
664.945	4.25
665.703	4.25
666.46	4.25
667.218	3.25
667.976	7.25
668.733	5.25
669.49	6.25
670.248	4.25
671.005	4.25
671.762	4.25
672.519	5.25
673.276	4.25
674.033	5.25
674.79	6.25
675.547	5.25
676.304	4.25
677.06	5.25
677.817	2.25
678.574	5.25
679.33	4.25
680.086	5.25
680.843	5.25
681.599	4.25
682.355	3.25
683.111	6.25
683.867	2.25
684.623	4.25
685.379	5.25
686.135	3.25
686.89	2.25
687.646	3.25
688.402	2.25
689.157	4.25
689.912	4.25
690.668	3.25
691.423	5.25
692.178	5.25
692.933	4.25
693.688	2.25
694.443	4.25
695.198	4.25
695.953	5.25
696.708	4.25
697.462	3.25
698.217	5.25
698.972	4.25
699.726	3.25
700.48	4.25
701.235	2.25
701.989	4.25
702.743	1.25
703.497	2.25
704.251	4.25
705.005	4.25
705.759	2.25
706.513	2.25
707.266	4.25
708.02	4.25
708.774	5.25
709.527	1.25
710.28	4.25
711.034	4.25
711.787	4.25
712.54	6.25
713.293	6.25
714.046	4.25
714.799	3.25
715.552	4.25
716.305	3.25
717.058	4.25
717.81	5.25
718.563	4.25
719.315	2.25
720.068	3.25
720.82	4.25
721.573	6.25
722.325	3.25
723.077	5.25
723.829	4.25
724.581	2.25
725.333	5.25
726.085	2.25
726.836	4.25
727.588	3.25
728.34	5.25
729.091	2.25
729.843	4.25
730.594	2.25
731.346	6.25
732.097	6.25
732.848	4.25
733.599	5.25
734.35	7.25
735.101	4.25
735.852	6.25
736.603	4.25
737.354	5.25
738.104	2.25
738.855	4.25
739.605	3.25
740.356	1.25
741.106	2.25
741.856	5.25
742.607	3.25
743.357	5.25
744.107	3.25
744.857	5.25
745.607	6.25
746.357	3.25
747.106	4.25
747.856	5.25
748.606	6.25
749.355	6.25
750.105	5.25
750.854	5.25
751.603	4.25
752.353	7.25
753.102	5.25
753.851	7.25
754.6	3.25
755.349	4.25
756.098	6.25
756.847	7.25
757.595	5.25
758.344	7.25
759.093	9.25
759.841	5.25
760.589	6.25
761.338	6.25
762.086	5.25
762.834	5.25
763.582	6.25
764.331	6.25
765.079	6.25
765.826	6.25
766.574	6.25
767.322	5.25
768.07	6.25
768.817	6.25
769.565	7.25
770.312	6.25
771.06	8.25
771.807	7.25
772.554	6.25
773.302	6.25
774.049	9.25
774.796	7.25
775.543	5.25
776.29	10.25
777.036	9.25
777.783	9.25
778.53	9.25
779.276	7.25
780.023	10.25
780.769	9.25
781.516	10.25
782.262	10.25
783.008	7.25
783.754	7.25
784.5	7.25
785.246	9.25
785.992	8.25
786.738	9.25
787.484	6.25
788.23	10.25
788.975	8.25
789.721	9.25
790.466	9.25
791.212	8.25
791.957	9.25
792.702	9.25
793.447	8.25
794.193	6.25
794.938	10.25
795.683	6.25
796.427	10.25
797.172	10.25
797.917	7.25
798.662	7.25
799.406	6.25
800.151	8.25
800.895	8.25
801.64	6.25
802.384	5.25
803.128	6.25
803.872	5.25
804.616	6.25
805.36	7.25
806.104	7.25
806.848	4.25
807.592	6.25
808.336	8.25
809.079	8.25
809.823	4.25
810.566	4.25
811.31	5.25
812.053	8.25
812.796	5.25
813.539	4.25
814.283	4.25
815.026	6.25
815.769	4.25
816.511	6.25
817.254	5.25
817.997	4.25
818.74	4.25
819.482	5.25
820.225	3.25
820.967	4.25
821.71	2.25
822.452	7.25
823.194	5.25
823.936	7.25
824.678	5.25
825.42	3.25
826.162	4.25
826.904	3.25
827.646	5.25
828.388	4.25
829.129	4.25
829.871	3.25
830.612	4.25
831.354	3.25
832.095	4.25
832.836	5.25
833.577	2.25
834.319	3.25
835.06	3.25
835.801	2.25
836.542	5.25
837.282	4.25
838.023	3.25
838.764	1.25
839.504	5.25
840.245	5.25
840.985	2.25
841.726	6.25
842.466	4.25
843.206	3.25
843.946	1.25
844.687	2.25
845.427	3.25
846.166	4.25
846.906	5.25
847.646	3.25
848.386	4.25
849.125	2.25
849.865	3.25
850.605	4.25
851.344	4.25
852.083	4.25
852.823	4.25
853.562	2.25
854.301	4.25
855.04	2.25
855.779	4.25
856.518	3.25
857.257	4.25
857.995	4.25
858.734	1.25
859.473	4.25
860.211	0.25
860.95	1.25
861.688	2.25
862.426	2.25
863.165	2.25
863.903	3.25
864.641	3.25
865.379	0.25
866.117	3.25
866.855	2.25
867.593	2.25
868.33	2.25
869.068	0.25
869.806	2.25
870.543	3.25
871.28	1.25
872.018	2.25
872.755	0.25
873.492	2.25
874.229	2.25
874.967	3.25
875.703	0.25
876.44	3.25
877.177	1.25
877.914	0.25
878.651	2.25
879.387	0.25
880.124	2.25
880.86	0.25
881.597	1.25
882.333	2.25
883.069	3.25
883.806	2.25
884.542	4.25
885.278	-0.75
886.014	2.25
886.749	1.25
887.485	3.25
888.221	-1.75
888.957	1.25
889.692	1.25
890.428	2.25
891.163	1.25
891.899	2.25
892.634	2.25
893.369	1.25
894.104	1.25
894.839	1.25
895.574	0.25
896.309	0.25
897.044	2.25
897.779	1.25
898.514	0.25
899.248	1.25
899.983	2.25
900.717	1.25
901.452	1.25
902.186	2.25
902.92	1.25
903.654	1.25
904.389	2.25
905.123	1.25
905.857	0.25
906.59	2.25
907.324	-1.75
908.058	-0.75
908.792	0.25
909.525	-1.75
910.259	2.25
910.992	2.25
911.726	1.25
912.459	2.25
913.192	1.25
913.925	2.25
914.658	-0.75
915.391	2.25
916.124	1.25
916.857	1.25
917.59	-0.75
918.323	1.25
919.055	2.25
919.788	0.25
920.521	2.25
921.253	0.25
921.985	-0.75
922.718	-0.75
923.45	0.25
924.182	0.25
924.914	0.25
925.646	2.25
926.378	0.25
927.11	-0.75
927.841	-1.75
928.573	1.25
929.305	2.25
930.036	0.25
930.768	0.25
931.499	1.25
932.23	1.25
932.962	3.25
933.693	-0.75
934.424	4.25
935.155	-2.75
935.886	0.25
936.617	1.25
937.348	0.25
938.078	0.25
938.809	-1.75
939.54	3.25
940.27	2.25
941.001	2.25
941.731	0.25
942.461	0.25
943.191	1.25
943.922	-1.75
944.652	0.25
945.382	1.25
946.112	1.25
946.841	1.25
947.571	0.25
948.301	1.25
949.031	-2.75
949.76	1.25
950.49	0.25
951.219	0.25
951.948	-0.75
952.678	0.25
953.407	0.25
954.136	0.25
954.865	1.25
955.594	1.25
956.323	0.25
957.052	1.25
957.78	2.25
958.509	0.25
959.238	-0.75
959.966	1.25
960.695	0.25
961.423	-1.75
962.151	-0.75
962.88	0.25
963.608	1.25
964.336	1.25
965.064	1.25
965.792	-0.75
966.52	2.25
967.247	1.25
967.975	2.25
968.703	2.25
969.43	1.25
970.158	1.25
970.885	0.25
971.613	-1.75
972.34	1.25
973.067	0.25
973.794	1.25
974.521	-1.75
975.248	0.25
975.975	0.25
976.702	2.25
977.429	1.25
978.156	0.25
978.882	2.25
979.609	1.25
980.335	-0.75
981.062	3.25
981.788	-1.75
982.514	0.25
983.24	-1.75
983.967	-1.75
984.693	1.25
985.419	1.25
986.144	-0.75
986.87	-0.75
987.596	1.25
988.322	1.25
989.047	0.25
989.773	1.25
990.498	-0.75
991.224	1.25
991.949	0.25
992.674	1.25
993.399	0.25
994.124	1.25
994.849	1.25
995.574	1.25
996.299	1.25
997.024	-0.75
997.749	1.25
998.473	0.25
999.198	-0.75
999.922	1.25
1000.647	0.25
1001.371	2.25
1002.095	-1.75
1002.82	0.25
1003.544	-1.75
1004.268	0.25
1004.992	1.25
1005.716	1.25
1006.439	0.25
1007.163	0.25
1007.887	6.25
1008.611	2.25
1009.334	1.25
1010.058	0.25
1010.781	-0.75
1011.504	1.25
1012.228	1.25
1012.951	0.25
1013.674	1.25
1014.397	-1.75
1015.12	1.25
