节点500_285_QEPB04081__849__15-09-40-730.txt的数据

Date: Wed Nov 12 15:09:40 CST 2025
User: PC
Spectrometer: QEPB0408
触发模式: 0
积分时间 (秒): 1.000000E-2
Scans to average: 1
启用暗噪声校正: true
启用非线性校正: false
滑动平均宽度: 0
X轴模式: Wavelengths
Number of Pixels in Spectrum: 1044
>>>>>Begin Spectral Data<<<<<
220.843	0.75
221.644	3.75
222.444	-0.25
223.244	0.75
224.045	1.75
224.845	2.75
225.645	2.75
226.445	2.75
227.245	3.75
228.045	2.75
228.845	3.75
229.645	6.75
230.444	2.75
231.244	3.75
232.043	2.75
232.843	2.75
233.642	4.75
234.442	3.75
235.241	4.75
236.04	3.75
236.839	4.75
237.638	2.75
238.437	2.75
239.236	4.75
240.035	3.75
240.833	4.75
241.632	2.75
242.43	8.75
243.229	4.75
244.027	6.75
244.826	5.75
245.624	5.75
246.422	3.75
247.22	6.75
248.018	4.75
248.816	7.75
249.614	7.75
250.412	8.75
251.21	5.75
252.007	9.75
252.805	6.75
253.602	5.75
254.4	6.75
255.197	6.75
255.994	6.75
256.791	7.75
257.589	9.75
258.386	5.75
259.183	10.75
259.979	8.75
260.776	9.75
261.573	10.75
262.37	12.75
263.166	9.75
263.963	10.75
264.759	9.75
265.556	12.75
266.352	11.75
267.148	11.75
267.944	12.75
268.74	15.75
269.536	14.75
270.332	10.75
271.128	14.75
271.924	11.75
272.719	13.75
273.515	13.75
274.311	13.75
275.106	13.75
275.901	15.75
276.697	15.75
277.492	13.75
278.287	14.75
279.082	16.75
279.877	16.75
280.672	16.75
281.467	17.75
282.262	17.75
283.056	16.75
283.851	20.75
284.646	16.75
285.44	17.75
286.234	18.75
287.029	19.75
287.823	17.75
288.617	16.75
289.411	18.75
290.205	19.75
290.999	17.75
291.793	17.75
292.587	16.75
293.381	14.75
294.174	15.75
294.968	17.75
295.761	15.75
296.555	14.75
297.348	15.75
298.141	12.75
298.935	17.75
299.728	13.75
300.521	16.75
301.314	16.75
302.107	12.75
302.899	13.75
303.692	10.75
304.485	14.75
305.277	14.75
306.07	13.75
306.862	14.75
307.655	12.75
308.447	12.75
309.239	10.75
310.031	14.75
310.823	10.75
311.615	8.75
312.407	8.75
313.199	10.75
313.991	11.75
314.783	9.75
315.574	7.75
316.366	8.75
317.157	10.75
317.949	11.75
318.74	8.75
319.531	8.75
320.322	7.75
321.113	6.75
321.904	6.75
322.695	7.75
323.486	7.75
324.277	7.75
325.068	7.75
325.858	10.75
326.649	7.75
327.439	9.75
328.23	5.75
329.02	8.75
329.81	6.75
330.6	8.75
331.391	6.75
332.181	4.75
332.971	8.75
333.76	8.75
334.55	6.75
335.34	6.75
336.13	7.75
336.919	6.75
337.709	3.75
338.498	8.75
339.287	6.75
340.077	7.75
340.866	3.75
341.655	7.75
342.444	8.75
343.233	5.75
344.022	6.75
344.811	5.75
345.6	4.75
346.388	7.75
347.177	6.75
347.965	3.75
348.754	4.75
349.542	6.75
350.33	5.75
351.119	5.75
351.907	5.75
352.695	7.75
353.483	3.75
354.271	5.75
355.059	5.75
355.846	7.75
356.634	4.75
357.422	5.75
358.209	4.75
358.997	5.75
359.784	4.75
360.571	5.75
361.359	2.75
362.146	4.75
362.933	5.75
363.72	5.75
364.507	4.75
365.294	5.75
366.081	4.75
366.867	6.75
367.654	5.75
368.44	5.75
369.227	5.75
370.013	6.75
370.8	4.75
371.586	7.75
372.372	5.75
373.158	5.75
373.944	4.75
374.73	3.75
375.516	4.75
376.302	2.75
377.088	5.75
377.873	6.75
378.659	4.75
379.445	5.75
380.23	3.75
381.015	6.75
381.801	4.75
382.586	6.75
383.371	5.75
384.156	4.75
384.941	3.75
385.726	6.75
386.511	4.75
387.296	7.75
388.08	4.75
388.865	7.75
389.649	5.75
390.434	4.75
391.218	7.75
392.003	5.75
392.787	5.75
393.571	8.75
394.355	6.75
395.139	5.75
395.923	7.75
396.707	5.75
397.491	10.75
398.274	7.75
399.058	9.75
399.842	7.75
400.625	7.75
401.408	8.75
402.192	7.75
402.975	5.75
403.758	7.75
404.541	7.75
405.324	7.75
406.107	7.75
406.89	7.75
407.673	9.75
408.456	8.75
409.238	8.75
410.021	7.75
410.803	4.75
411.586	9.75
412.368	11.75
413.151	9.75
413.933	9.75
414.715	10.75
415.497	9.75
416.279	9.75
417.061	9.75
417.843	9.75
418.624	9.75
419.406	5.75
420.188	8.75
420.969	8.75
421.751	9.75
422.532	10.75
423.313	10.75
424.095	10.75
424.876	11.75
425.657	11.75
426.438	12.75
427.219	14.75
428	14.75
428.78	12.75
429.561	14.75
430.342	14.75
431.122	14.75
431.903	14.75
432.683	16.75
433.464	13.75
434.244	17.75
435.024	14.75
435.804	16.75
436.584	18.75
437.364	17.75
438.144	22.75
438.924	22.75
439.704	19.75
440.483	20.75
441.263	27.75
442.042	24.75
442.822	27.75
443.601	29.75
444.38	28.75
445.16	34.75
445.939	38.75
446.718	37.75
447.497	46.75
448.276	46.75
449.054	48.75
449.833	52.75
450.612	55.75
451.391	65.75
452.169	73.75
452.948	76.75
453.726	82.75
454.504	91.75
455.282	102.75
456.061	118.75
456.839	127.75
457.617	141.75
458.395	154.75
459.172	172.75
459.95	191.75
460.728	215.75
461.506	234.75
462.283	257.75
463.061	286.75
463.838	326.75
464.615	366.75
465.393	408.75
466.17	447.75
466.947	496.75
467.724	553.75
468.501	618.75
469.278	670.75
470.055	741.75
470.831	820.75
471.608	918.75
472.385	1006.75
473.161	1113.75
473.938	1207.75
474.714	1332.75
475.49	1459.75
476.266	1605.75
477.043	1755.75
477.819	1945.75
478.595	2122.75
479.371	2308.75
480.146	2540.75
480.922	2761.75
481.698	3030.75
482.473	3324.75
483.249	3613.75
484.024	3977.75
484.8	4298.75
485.575	4691.75
486.35	5117.75
487.126	5580.75
487.901	6053.75
488.676	6585.75
489.451	7131.75
490.225	7755.75
491	8444.75
491.775	9126.75
492.55	9895.75
493.324	10635.75
494.099	11432.75
494.873	12279.75
495.647	13173.75
496.422	14122.75
497.196	15127.75
497.97	16125.75
498.744	17167.75
499.518	18154.75
500.292	19188.75
501.066	20176.75
501.839	21081.75
502.613	21955.75
503.387	22796.75
504.16	23530.75
504.934	24048.75
505.707	24420.75
506.48	24649.75
507.253	24830.75
508.027	24904.75
508.8	24843.75
509.573	24714.75
510.346	24364.75
511.118	23904.75
511.891	23460.75
512.664	22824.75
513.437	22151.75
514.209	21395.75
514.982	20671.75
515.754	19876.75
516.526	19064.75
517.298	18364.75
518.071	17612.75
518.843	16926.75
519.615	16340.75
520.387	15724.75
521.159	15018.75
521.93	14467.75
522.702	13918.75
523.474	13286.75
524.245	12695.75
525.017	12205.75
525.788	11746.75
526.56	11219.75
527.331	10748.75
528.102	10239.75
528.873	9886.75
529.644	9391.75
530.415	8974.75
531.186	8550.75
531.957	8185.75
532.728	7772.75
533.498	7402.75
534.269	6966.75
535.039	6623.75
535.81	6269.75
536.58	5941.75
537.351	5613.75
538.121	5286.75
538.891	5028.75
539.661	4766.75
540.431	4492.75
541.201	4254.75
541.971	4019.75
542.741	3794.75
543.51	3640.75
544.28	3453.75
545.05	3268.75
545.819	3120.75
546.588	2966.75
547.358	2816.75
548.127	2669.75
548.896	2570.75
549.665	2425.75
550.434	2293.75
551.203	2162.75
551.972	2032.75
552.741	1962.75
553.51	1858.75
554.278	1749.75
555.047	1661.75
555.815	1577.75
556.584	1479.75
557.352	1409.75
558.121	1312.75
558.889	1255.75
559.657	1182.75
560.425	1115.75
561.193	1044.75
561.961	982.75
562.729	933.75
563.496	889.75
564.264	828.75
565.032	796.75
565.799	748.75
566.567	710.75
567.334	665.75
568.101	636.75
568.869	600.75
569.636	559.75
570.403	526.75
571.17	496.75
571.937	473.75
572.704	446.75
573.471	416.75
574.237	386.75
575.004	373.75
575.771	356.75
576.537	337.75
577.303	314.75
578.07	295.75
578.836	281.75
579.602	270.75
580.368	251.75
581.134	231.75
581.9	220.75
582.666	213.75
583.432	202.75
584.198	190.75
584.964	179.75
585.729	172.75
586.495	161.75
587.26	158.75
588.025	145.75
588.791	135.75
589.556	128.75
590.321	122.75
591.086	113.75
591.851	113.75
592.616	103.75
593.381	98.75
594.146	94.75
594.911	93.75
595.675	88.75
596.44	88.75
597.204	80.75
597.969	75.75
598.733	67.75
599.497	69.75
600.261	65.75
601.025	61.75
601.79	59.75
602.553	57.75
603.317	55.75
604.081	52.75
604.845	50.75
605.609	49.75
606.372	45.75
607.136	42.75
607.899	41.75
608.662	33.75
609.426	38.75
610.189	39.75
610.952	37.75
611.715	37.75
612.478	32.75
613.241	32.75
614.004	32.75
614.767	30.75
615.529	30.75
616.292	28.75
617.055	28.75
617.817	26.75
618.579	23.75
619.342	25.75
620.104	20.75
620.866	22.75
621.628	19.75
622.39	18.75
623.152	20.75
623.914	21.75
624.676	17.75
625.438	18.75
626.199	19.75
626.961	18.75
627.722	14.75
628.484	15.75
629.245	18.75
630.006	14.75
630.768	12.75
631.529	13.75
632.29	14.75
633.051	13.75
633.812	14.75
634.573	12.75
635.333	11.75
636.094	12.75
636.855	11.75
637.615	12.75
638.376	9.75
639.136	12.75
639.896	8.75
640.657	12.75
641.417	10.75
642.177	8.75
642.937	9.75
643.697	8.75
644.457	11.75
645.216	7.75
645.976	7.75
646.736	7.75
647.495	6.75
648.255	8.75
649.014	9.75
649.774	8.75
650.533	7.75
651.292	5.75
652.051	8.75
652.81	8.75
653.569	7.75
654.328	7.75
655.087	3.75
655.846	7.75
656.604	6.75
657.363	8.75
658.121	6.75
658.88	7.75
659.638	6.75
660.397	9.75
661.155	4.75
661.913	5.75
662.671	6.75
663.429	5.75
664.187	7.75
664.945	4.75
665.703	7.75
666.46	5.75
667.218	7.75
667.976	3.75
668.733	2.75
669.49	6.75
670.248	3.75
671.005	4.75
671.762	2.75
672.519	3.75
673.276	2.75
674.033	4.75
674.79	5.75
675.547	4.75
676.304	7.75
677.06	4.75
677.817	4.75
678.574	7.75
679.33	4.75
680.086	5.75
680.843	5.75
681.599	4.75
682.355	3.75
683.111	5.75
683.867	4.75
684.623	4.75
685.379	4.75
686.135	7.75
686.89	5.75
687.646	4.75
688.402	2.75
689.157	3.75
689.912	2.75
690.668	6.75
691.423	5.75
692.178	5.75
692.933	3.75
693.688	4.75
694.443	3.75
695.198	5.75
695.953	3.75
696.708	4.75
697.462	5.75
698.217	3.75
698.972	3.75
699.726	2.75
700.48	5.75
701.235	1.75
701.989	4.75
702.743	4.75
703.497	4.75
704.251	2.75
705.005	5.75
705.759	3.75
706.513	4.75
707.266	4.75
708.02	2.75
708.774	2.75
709.527	2.75
710.28	2.75
711.034	3.75
711.787	2.75
712.54	3.75
713.293	5.75
714.046	2.75
714.799	7.75
715.552	3.75
716.305	3.75
717.058	2.75
717.81	5.75
718.563	5.75
719.315	4.75
720.068	3.75
720.82	4.75
721.573	3.75
722.325	4.75
723.077	6.75
723.829	3.75
724.581	1.75
725.333	2.75
726.085	7.75
726.836	5.75
727.588	3.75
728.34	4.75
729.091	4.75
729.843	4.75
730.594	4.75
731.346	4.75
732.097	6.75
732.848	4.75
733.599	5.75
734.35	4.75
735.101	4.75
735.852	4.75
736.603	2.75
737.354	4.75
738.104	4.75
738.855	4.75
739.605	5.75
740.356	2.75
741.106	4.75
741.856	4.75
742.607	3.75
743.357	4.75
744.107	6.75
744.857	4.75
745.607	6.75
746.357	6.75
747.106	3.75
747.856	4.75
748.606	5.75
749.355	5.75
750.105	5.75
750.854	7.75
751.603	7.75
752.353	4.75
753.102	6.75
753.851	5.75
754.6	4.75
755.349	7.75
756.098	3.75
756.847	5.75
757.595	7.75
758.344	7.75
759.093	5.75
759.841	9.75
760.589	8.75
761.338	8.75
762.086	7.75
762.834	7.75
763.582	6.75
764.331	8.75
765.079	8.75
765.826	7.75
766.574	5.75
767.322	10.75
768.07	4.75
768.817	6.75
769.565	7.75
770.312	7.75
771.06	6.75
771.807	6.75
772.554	6.75
773.302	7.75
774.049	9.75
774.796	9.75
775.543	8.75
776.29	4.75
777.036	8.75
777.783	7.75
778.53	7.75
779.276	7.75
780.023	5.75
780.769	9.75
781.516	10.75
782.262	8.75
783.008	7.75
783.754	9.75
784.5	8.75
785.246	7.75
785.992	7.75
786.738	9.75
787.484	5.75
788.23	9.75
788.975	7.75
789.721	10.75
790.466	7.75
791.212	5.75
791.957	9.75
792.702	8.75
793.447	10.75
794.193	6.75
794.938	7.75
795.683	7.75
796.427	9.75
797.172	9.75
797.917	6.75
798.662	8.75
799.406	7.75
800.151	7.75
800.895	9.75
801.64	6.75
802.384	7.75
803.128	7.75
803.872	5.75
804.616	8.75
805.36	7.75
806.104	6.75
806.848	7.75
807.592	6.75
808.336	6.75
809.079	6.75
809.823	6.75
810.566	3.75
811.31	9.75
812.053	4.75
812.796	6.75
813.539	7.75
814.283	6.75
815.026	5.75
815.769	4.75
816.511	7.75
817.254	6.75
817.997	5.75
818.74	6.75
819.482	3.75
820.225	5.75
820.967	4.75
821.71	6.75
822.452	4.75
823.194	5.75
823.936	4.75
824.678	5.75
825.42	6.75
826.162	5.75
826.904	4.75
827.646	2.75
828.388	3.75
829.129	5.75
829.871	4.75
830.612	6.75
831.354	3.75
832.095	5.75
832.836	3.75
833.577	7.75
834.319	6.75
835.06	3.75
835.801	5.75
836.542	1.75
837.282	4.75
838.023	4.75
838.764	2.75
839.504	2.75
840.245	4.75
840.985	4.75
841.726	3.75
842.466	3.75
843.206	3.75
843.946	5.75
844.687	3.75
845.427	4.75
846.166	4.75
846.906	4.75
847.646	2.75
848.386	4.75
849.125	4.75
849.865	2.75
850.605	2.75
851.344	5.75
852.083	2.75
852.823	3.75
853.562	5.75
854.301	2.75
855.04	2.75
855.779	2.75
856.518	3.75
857.257	1.75
857.995	3.75
858.734	4.75
859.473	1.75
860.211	3.75
860.95	3.75
861.688	3.75
862.426	1.75
863.165	4.75
863.903	1.75
864.641	3.75
865.379	1.75
866.117	1.75
866.855	2.75
867.593	2.75
868.33	1.75
869.068	1.75
869.806	-0.25
870.543	6.75
871.28	1.75
872.018	2.75
872.755	2.75
873.492	1.75
874.229	2.75
874.967	-0.25
875.703	1.75
876.44	0.75
877.177	1.75
877.914	1.75
878.651	2.75
879.387	1.75
880.124	3.75
880.86	3.75
881.597	0.75
882.333	1.75
883.069	1.75
883.806	0.75
884.542	1.75
885.278	0.75
886.014	3.75
886.749	-0.25
887.485	0.75
888.221	3.75
888.957	0.75
889.692	0.75
890.428	3.75
891.163	0.75
891.899	0.75
892.634	0.75
893.369	0.75
894.104	-1.25
894.839	1.75
895.574	1.75
896.309	3.75
897.044	3.75
897.779	0.75
898.514	0.75
899.248	0.75
899.983	1.75
900.717	-1.25
901.452	3.75
902.186	1.75
902.92	0.75
903.654	2.75
904.389	1.75
905.123	0.75
905.857	-0.25
906.59	3.75
907.324	0.75
908.058	0.75
908.792	1.75
909.525	-2.25
910.259	1.75
910.992	1.75
911.726	1.75
912.459	2.75
913.192	0.75
913.925	1.75
914.658	0.75
915.391	1.75
916.124	1.75
916.857	1.75
917.59	-0.25
918.323	-0.25
919.055	1.75
919.788	-0.25
920.521	0.75
921.253	2.75
921.985	0.75
922.718	1.75
923.45	-1.25
924.182	2.75
924.914	0.75
925.646	0.75
926.378	-0.25
927.11	0.75
927.841	-1.25
928.573	1.75
929.305	-1.25
930.036	1.75
930.768	1.75
931.499	1.75
932.23	-1.25
932.962	0.75
933.693	2.75
934.424	2.75
935.155	1.75
935.886	-1.25
936.617	0.75
937.348	-0.25
938.078	0.75
938.809	-1.25
939.54	0.75
940.27	0.75
941.001	0.75
941.731	2.75
942.461	2.75
943.191	-0.25
943.922	1.75
944.652	-3.25
945.382	-2.25
946.112	0.75
946.841	1.75
947.571	-1.25
948.301	1.75
949.031	0.75
949.76	1.75
950.49	0.75
951.219	0.75
951.948	0.75
952.678	3.75
953.407	1.75
954.136	0.75
954.865	1.75
955.594	1.75
956.323	-1.25
957.052	2.75
957.78	2.75
958.509	-1.25
959.238	1.75
959.966	0.75
960.695	-1.25
961.423	1.75
962.151	-0.25
962.88	1.75
963.608	-0.25
964.336	-0.25
965.064	1.75
965.792	0.75
966.52	1.75
967.247	2.75
967.975	1.75
968.703	1.75
969.43	-0.25
970.158	-1.25
970.885	1.75
971.613	4.75
972.34	0.75
973.067	0.75
973.794	0.75
974.521	1.75
975.248	1.75
975.975	2.75
976.702	-0.25
977.429	1.75
978.156	2.75
978.882	1.75
979.609	1.75
980.335	0.75
981.062	1.75
981.788	0.75
982.514	-1.25
983.24	1.75
983.967	3.75
984.693	1.75
985.419	-1.25
986.144	-1.25
986.87	1.75
987.596	2.75
988.322	0.75
989.047	1.75
989.773	2.75
990.498	-0.25
991.224	-0.25
991.949	-0.25
992.674	1.75
993.399	-0.25
994.124	0.75
994.849	2.75
995.574	-2.25
996.299	1.75
997.024	2.75
997.749	0.75
998.473	1.75
999.198	-0.25
999.922	1.75
1000.647	2.75
1001.371	1.75
1002.095	-1.25
1002.82	-0.25
1003.544	-2.25
1004.268	0.75
1004.992	1.75
1005.716	2.75
1006.439	0.75
1007.163	0.75
1007.887	2.75
1008.611	-1.25
1009.334	2.75
1010.058	0.75
1010.781	1.75
1011.504	2.75
1012.228	-1.25
1012.951	0.75
1013.674	-0.25
1014.397	0.75
1015.12	0.75
