节点500_285_QEPB04081__325__15-00-57-718.txt的数据

Date: Wed Nov 12 15:00:57 CST 2025
User: PC
Spectrometer: QEPB0408
触发模式: 0
积分时间 (秒): 1.000000E-2
Scans to average: 1
启用暗噪声校正: true
启用非线性校正: false
滑动平均宽度: 0
X轴模式: Wavelengths
Number of Pixels in Spectrum: 1044
>>>>>Begin Spectral Data<<<<<
220.843	1.25
221.644	0.25
222.444	0.25
223.244	2.25
224.045	0.25
224.845	1.25
225.645	2.25
226.445	1.25
227.245	4.25
228.045	2.25
228.845	3.25
229.645	4.25
230.444	2.25
231.244	2.25
232.043	3.25
232.843	0.25
233.642	2.25
234.442	5.25
235.241	5.25
236.04	3.25
236.839	4.25
237.638	4.25
238.437	5.25
239.236	3.25
240.035	1.25
240.833	5.25
241.632	5.25
242.43	4.25
243.229	6.25
244.027	6.25
244.826	4.25
245.624	4.25
246.422	5.25
247.22	6.25
248.018	9.25
248.816	4.25
249.614	8.25
250.412	6.25
251.21	4.25
252.007	7.25
252.805	6.25
253.602	7.25
254.4	7.25
255.197	6.25
255.994	6.25
256.791	8.25
257.589	7.25
258.386	9.25
259.183	10.25
259.979	7.25
260.776	11.25
261.573	12.25
262.37	9.25
263.166	12.25
263.963	12.25
264.759	11.25
265.556	10.25
266.352	9.25
267.148	11.25
267.944	14.25
268.74	14.25
269.536	13.25
270.332	14.25
271.128	15.25
271.924	13.25
272.719	13.25
273.515	16.25
274.311	14.25
275.106	15.25
275.901	17.25
276.697	17.25
277.492	17.25
278.287	21.25
279.082	18.25
279.877	19.25
280.672	17.25
281.467	20.25
282.262	17.25
283.056	19.25
283.851	20.25
284.646	18.25
285.44	17.25
286.234	19.25
287.029	17.25
287.823	17.25
288.617	19.25
289.411	16.25
290.205	18.25
290.999	17.25
291.793	20.25
292.587	17.25
293.381	15.25
294.174	15.25
294.968	17.25
295.761	15.25
296.555	13.25
297.348	17.25
298.141	15.25
298.935	16.25
299.728	13.25
300.521	13.25
301.314	14.25
302.107	13.25
302.899	15.25
303.692	11.25
304.485	13.25
305.277	11.25
306.07	11.25
306.862	12.25
307.655	13.25
308.447	11.25
309.239	12.25
310.031	12.25
310.823	9.25
311.615	7.25
312.407	11.25
313.199	8.25
313.991	10.25
314.783	9.25
315.574	9.25
316.366	8.25
317.157	8.25
317.949	5.25
318.74	8.25
319.531	7.25
320.322	9.25
321.113	5.25
321.904	7.25
322.695	7.25
323.486	6.25
324.277	8.25
325.068	8.25
325.858	5.25
326.649	6.25
327.439	7.25
328.23	4.25
329.02	4.25
329.81	8.25
330.6	5.25
331.391	7.25
332.181	6.25
332.971	6.25
333.76	7.25
334.55	4.25
335.34	6.25
336.13	6.25
336.919	6.25
337.709	4.25
338.498	6.25
339.287	4.25
340.077	3.25
340.866	5.25
341.655	5.25
342.444	6.25
343.233	7.25
344.022	5.25
344.811	6.25
345.6	6.25
346.388	5.25
347.177	8.25
347.965	6.25
348.754	9.25
349.542	6.25
350.33	6.25
351.119	7.25
351.907	4.25
352.695	5.25
353.483	4.25
354.271	5.25
355.059	5.25
355.846	8.25
356.634	4.25
357.422	4.25
358.209	9.25
358.997	2.25
359.784	7.25
360.571	4.25
361.359	6.25
362.146	5.25
362.933	3.25
363.72	7.25
364.507	4.25
365.294	6.25
366.081	3.25
366.867	4.25
367.654	5.25
368.44	2.25
369.227	3.25
370.013	4.25
370.8	4.25
371.586	4.25
372.372	5.25
373.158	6.25
373.944	2.25
374.73	6.25
375.516	4.25
376.302	7.25
377.088	6.25
377.873	4.25
378.659	6.25
379.445	5.25
380.23	5.25
381.015	5.25
381.801	3.25
382.586	5.25
383.371	4.25
384.156	6.25
384.941	3.25
385.726	5.25
386.511	6.25
387.296	5.25
388.08	7.25
388.865	4.25
389.649	6.25
390.434	6.25
391.218	6.25
392.003	6.25
392.787	6.25
393.571	5.25
394.355	5.25
395.139	6.25
395.923	4.25
396.707	6.25
397.491	6.25
398.274	6.25
399.058	6.25
399.842	7.25
400.625	7.25
401.408	6.25
402.192	7.25
402.975	7.25
403.758	5.25
404.541	7.25
405.324	4.25
406.107	10.25
406.89	8.25
407.673	5.25
408.456	10.25
409.238	8.25
410.021	6.25
410.803	6.25
411.586	7.25
412.368	8.25
413.151	7.25
413.933	8.25
414.715	6.25
415.497	9.25
416.279	9.25
417.061	8.25
417.843	8.25
418.624	7.25
419.406	10.25
420.188	9.25
420.969	8.25
421.751	12.25
422.532	9.25
423.313	13.25
424.095	11.25
424.876	10.25
425.657	11.25
426.438	11.25
427.219	12.25
428	10.25
428.78	10.25
429.561	14.25
430.342	13.25
431.122	13.25
431.903	13.25
432.683	17.25
433.464	13.25
434.244	17.25
435.024	15.25
435.804	20.25
436.584	18.25
437.364	18.25
438.144	18.25
438.924	21.25
439.704	21.25
440.483	22.25
441.263	23.25
442.042	26.25
442.822	25.25
443.601	28.25
444.38	28.25
445.16	32.25
445.939	31.25
446.718	36.25
447.497	41.25
448.276	43.25
449.054	47.25
449.833	45.25
450.612	50.25
451.391	54.25
452.169	66.25
452.948	68.25
453.726	75.25
454.504	81.25
455.282	86.25
456.061	103.25
456.839	106.25
457.617	120.25
458.395	133.25
459.172	154.25
459.95	165.25
460.728	185.25
461.506	206.25
462.283	228.25
463.061	251.25
463.838	289.25
464.615	321.25
465.393	362.25
466.17	397.25
466.947	445.25
467.724	493.25
468.501	560.25
469.278	614.25
470.055	686.25
470.831	766.25
471.608	858.25
472.385	952.25
473.161	1046.25
473.938	1161.25
474.714	1279.25
475.49	1425.25
476.266	1572.25
477.043	1730.25
477.819	1931.25
478.595	2131.25
479.371	2356.25
480.146	2593.25
480.922	2861.25
481.698	3167.25
482.473	3462.25
483.249	3805.25
484.024	4205.25
484.8	4638.25
485.575	5072.25
486.35	5600.25
487.126	6137.25
487.901	6749.25
488.676	7377.25
489.451	8068.25
490.225	8843.25
491	9684.25
491.775	10582.25
492.55	11512.25
493.324	12498.25
494.099	13446.25
494.873	14481.25
495.647	15610.25
496.422	16782.25
497.196	17946.25
497.97	19167.25
498.744	20436.25
499.518	21501.25
500.292	22644.25
501.066	23776.25
501.839	24709.25
502.613	25669.25
503.387	26446.25
504.16	27051.25
504.934	27312.25
505.707	27522.25
506.48	27546.25
507.253	27539.25
508.027	27137.25
508.8	26903.25
509.573	26455.25
510.346	25803.25
511.118	24998.25
511.891	24241.25
512.664	23355.25
513.437	22451.25
514.209	21579.25
514.982	20694.25
515.754	19748.25
516.526	18899.25
517.298	18016.25
518.071	17261.25
518.843	16609.25
519.615	15939.25
520.387	15310.25
521.159	14684.25
521.93	14176.25
522.702	13547.25
523.474	13036.25
524.245	12424.25
525.017	11913.25
525.788	11473.25
526.56	10900.25
527.331	10385.25
528.102	9994.25
528.873	9479.25
529.644	8959.25
530.415	8600.25
531.186	8129.25
531.957	7769.25
532.728	7323.25
533.498	6997.25
534.269	6558.25
535.039	6208.25
535.81	5869.25
536.58	5514.25
537.351	5206.25
538.121	4904.25
538.891	4668.25
539.661	4399.25
540.431	4159.25
541.201	3923.25
541.971	3710.25
542.741	3512.25
543.51	3356.25
544.28	3192.25
545.05	3053.25
545.819	2901.25
546.588	2728.25
547.358	2589.25
548.127	2484.25
548.896	2349.25
549.665	2219.25
550.434	2120.25
551.203	2000.25
551.972	1886.25
552.741	1784.25
553.51	1693.25
554.278	1598.25
555.047	1502.25
555.815	1422.25
556.584	1342.25
557.352	1283.25
558.121	1205.25
558.889	1125.25
559.657	1076.25
560.425	1006.25
561.193	952.25
561.961	898.25
562.729	838.25
563.496	800.25
564.264	749.25
565.032	718.25
565.799	668.25
566.567	636.25
567.334	603.25
568.101	577.25
568.869	535.25
569.636	502.25
570.403	477.25
571.17	447.25
571.937	417.25
572.704	398.25
573.471	375.25
574.237	352.25
575.004	335.25
575.771	318.25
576.537	302.25
577.303	282.25
578.07	266.25
578.836	249.25
579.602	239.25
580.368	224.25
581.134	213.25
581.9	201.25
582.666	189.25
583.432	180.25
584.198	175.25
584.964	158.25
585.729	155.25
586.495	145.25
587.26	135.25
588.025	129.25
588.791	118.25
589.556	114.25
590.321	108.25
591.086	106.25
591.851	97.25
592.616	97.25
593.381	88.25
594.146	87.25
594.911	86.25
595.675	80.25
596.44	73.25
597.204	70.25
597.969	67.25
598.733	64.25
599.497	61.25
600.261	62.25
601.025	53.25
601.79	54.25
602.553	51.25
603.317	47.25
604.081	47.25
604.845	43.25
605.609	44.25
606.372	40.25
607.136	39.25
607.899	38.25
608.662	38.25
609.426	36.25
610.189	33.25
610.952	31.25
611.715	31.25
612.478	27.25
613.241	27.25
614.004	28.25
614.767	25.25
615.529	26.25
616.292	26.25
617.055	22.25
617.817	22.25
618.579	20.25
619.342	19.25
620.104	20.25
620.866	22.25
621.628	19.25
622.39	18.25
623.152	20.25
623.914	18.25
624.676	15.25
625.438	17.25
626.199	16.25
626.961	16.25
627.722	12.25
628.484	13.25
629.245	13.25
630.006	15.25
630.768	14.25
631.529	11.25
632.29	10.25
633.051	11.25
633.812	10.25
634.573	14.25
635.333	11.25
636.094	11.25
636.855	10.25
637.615	8.25
638.376	8.25
639.136	9.25
639.896	10.25
640.657	9.25
641.417	9.25
642.177	11.25
642.937	9.25
643.697	10.25
644.457	8.25
645.216	6.25
645.976	8.25
646.736	5.25
647.495	7.25
648.255	9.25
649.014	7.25
649.774	7.25
650.533	6.25
651.292	8.25
652.051	5.25
652.81	7.25
653.569	6.25
654.328	5.25
655.087	6.25
655.846	5.25
656.604	6.25
657.363	8.25
658.121	8.25
658.88	5.25
659.638	6.25
660.397	7.25
661.155	6.25
661.913	7.25
662.671	5.25
663.429	5.25
664.187	6.25
664.945	3.25
665.703	7.25
666.46	6.25
667.218	5.25
667.976	5.25
668.733	5.25
669.49	4.25
670.248	4.25
671.005	4.25
671.762	4.25
672.519	4.25
673.276	7.25
674.033	4.25
674.79	5.25
675.547	3.25
676.304	3.25
677.06	4.25
677.817	4.25
678.574	4.25
679.33	2.25
680.086	1.25
680.843	5.25
681.599	4.25
682.355	7.25
683.111	2.25
683.867	3.25
684.623	2.25
685.379	2.25
686.135	4.25
686.89	3.25
687.646	5.25
688.402	2.25
689.157	5.25
689.912	1.25
690.668	3.25
691.423	4.25
692.178	3.25
692.933	5.25
693.688	2.25
694.443	3.25
695.198	3.25
695.953	4.25
696.708	3.25
697.462	4.25
698.217	3.25
698.972	2.25
699.726	2.25
700.48	4.25
701.235	3.25
701.989	5.25
702.743	3.25
703.497	3.25
704.251	4.25
705.005	3.25
705.759	1.25
706.513	1.25
707.266	2.25
708.02	2.25
708.774	6.25
709.527	5.25
710.28	3.25
711.034	3.25
711.787	3.25
712.54	6.25
713.293	3.25
714.046	1.25
714.799	4.25
715.552	4.25
716.305	4.25
717.058	3.25
717.81	5.25
718.563	3.25
719.315	5.25
720.068	4.25
720.82	2.25
721.573	3.25
722.325	3.25
723.077	1.25
723.829	4.25
724.581	4.25
725.333	4.25
726.085	3.25
726.836	1.25
727.588	2.25
728.34	4.25
729.091	5.25
729.843	3.25
730.594	4.25
731.346	3.25
732.097	3.25
732.848	2.25
733.599	3.25
734.35	3.25
735.101	4.25
735.852	5.25
736.603	1.25
737.354	7.25
738.104	4.25
738.855	5.25
739.605	4.25
740.356	3.25
741.106	3.25
741.856	5.25
742.607	6.25
743.357	4.25
744.107	3.25
744.857	6.25
745.607	3.25
746.357	5.25
747.106	6.25
747.856	5.25
748.606	4.25
749.355	5.25
750.105	8.25
750.854	3.25
751.603	2.25
752.353	6.25
753.102	4.25
753.851	5.25
754.6	6.25
755.349	4.25
756.098	3.25
756.847	3.25
757.595	5.25
758.344	3.25
759.093	6.25
759.841	6.25
760.589	4.25
761.338	6.25
762.086	5.25
762.834	6.25
763.582	6.25
764.331	6.25
765.079	4.25
765.826	6.25
766.574	7.25
767.322	8.25
768.07	7.25
768.817	7.25
769.565	8.25
770.312	7.25
771.06	5.25
771.807	6.25
772.554	8.25
773.302	7.25
774.049	9.25
774.796	9.25
775.543	9.25
776.29	7.25
777.036	7.25
777.783	8.25
778.53	7.25
779.276	8.25
780.023	8.25
780.769	10.25
781.516	8.25
782.262	8.25
783.008	7.25
783.754	9.25
784.5	7.25
785.246	9.25
785.992	7.25
786.738	8.25
787.484	9.25
788.23	9.25
788.975	10.25
789.721	9.25
790.466	8.25
791.212	10.25
791.957	6.25
792.702	9.25
793.447	8.25
794.193	8.25
794.938	7.25
795.683	7.25
796.427	9.25
797.172	7.25
797.917	7.25
798.662	6.25
799.406	8.25
800.151	7.25
800.895	5.25
801.64	7.25
802.384	6.25
803.128	5.25
803.872	6.25
804.616	7.25
805.36	6.25
806.104	6.25
806.848	4.25
807.592	8.25
808.336	4.25
809.079	4.25
809.823	3.25
810.566	6.25
811.31	1.25
812.053	6.25
812.796	3.25
813.539	5.25
814.283	7.25
815.026	6.25
815.769	4.25
816.511	4.25
817.254	4.25
817.997	4.25
818.74	3.25
819.482	4.25
820.225	4.25
820.967	3.25
821.71	5.25
822.452	5.25
823.194	2.25
823.936	4.25
824.678	4.25
825.42	1.25
826.162	3.25
826.904	1.25
827.646	4.25
828.388	5.25
829.129	1.25
829.871	4.25
830.612	4.25
831.354	3.25
832.095	4.25
832.836	5.25
833.577	2.25
834.319	3.25
835.06	3.25
835.801	2.25
836.542	2.25
837.282	3.25
838.023	1.25
838.764	3.25
839.504	3.25
840.245	3.25
840.985	4.25
841.726	2.25
842.466	4.25
843.206	2.25
843.946	3.25
844.687	1.25
845.427	3.25
846.166	4.25
846.906	2.25
847.646	5.25
848.386	1.25
849.125	4.25
849.865	1.25
850.605	2.25
851.344	1.25
852.083	2.25
852.823	2.25
853.562	3.25
854.301	2.25
855.04	2.25
855.779	1.25
856.518	2.25
857.257	1.25
857.995	3.25
858.734	2.25
859.473	2.25
860.211	1.25
860.95	2.25
861.688	1.25
862.426	3.25
863.165	2.25
863.903	-0.75
864.641	0.25
865.379	3.25
866.117	3.25
866.855	1.25
867.593	1.25
868.33	1.25
869.068	4.25
869.806	1.25
870.543	0.25
871.28	-0.75
872.018	-0.75
872.755	-0.75
873.492	1.25
874.229	2.25
874.967	1.25
875.703	-0.75
876.44	2.25
877.177	1.25
877.914	1.25
878.651	0.25
879.387	1.25
880.124	0.25
880.86	1.25
881.597	0.25
882.333	2.25
883.069	1.25
883.806	0.25
884.542	1.25
885.278	-0.75
886.014	1.25
886.749	2.25
887.485	3.25
888.221	2.25
888.957	-0.75
889.692	1.25
890.428	2.25
891.163	1.25
891.899	1.25
892.634	-0.75
893.369	1.25
894.104	-0.75
894.839	0.25
895.574	0.25
896.309	-1.75
897.044	1.25
897.779	-0.75
898.514	2.25
899.248	-1.75
899.983	0.25
900.717	-0.75
901.452	2.25
902.186	0.25
902.92	1.25
903.654	1.25
904.389	1.25
905.123	0.25
905.857	-0.75
906.59	-0.75
907.324	0.25
908.058	1.25
908.792	1.25
909.525	1.25
910.259	1.25
910.992	0.25
911.726	-0.75
912.459	0.25
913.192	-3.75
913.925	4.25
914.658	2.25
915.391	0.25
916.124	0.25
916.857	0.25
917.59	-0.75
918.323	0.25
919.055	-1.75
919.788	0.25
920.521	-0.75
921.253	0.25
921.985	-1.75
922.718	0.25
923.45	-0.75
924.182	1.25
924.914	-0.75
925.646	1.25
926.378	2.25
927.11	-0.75
927.841	1.25
928.573	-1.75
929.305	1.25
930.036	-0.75
930.768	-2.75
931.499	1.25
932.23	-1.75
932.962	-0.75
933.693	0.25
934.424	0.25
935.155	1.25
935.886	0.25
936.617	2.25
937.348	-1.75
938.078	0.25
938.809	1.25
939.54	-0.75
940.27	0.25
941.001	-1.75
941.731	-1.75
942.461	-0.75
943.191	-2.75
943.922	-1.75
944.652	-0.75
945.382	0.25
946.112	-0.75
946.841	0.25
947.571	-0.75
948.301	-3.75
949.031	2.25
949.76	-0.75
950.49	1.25
951.219	0.25
951.948	1.25
952.678	-1.75
953.407	0.25
954.136	0.25
954.865	3.25
955.594	1.25
956.323	-2.75
957.052	-1.75
957.78	1.25
958.509	-0.75
959.238	-0.75
959.966	1.25
960.695	0.25
961.423	0.25
962.151	0.25
962.88	-0.75
963.608	-2.75
964.336	1.25
965.064	1.25
965.792	0.25
966.52	2.25
967.247	-2.75
967.975	-0.75
968.703	1.25
969.43	0.25
970.158	-0.75
970.885	-0.75
971.613	-1.75
972.34	-0.75
973.067	1.25
973.794	0.25
974.521	-3.75
975.248	-1.75
975.975	1.25
976.702	-1.75
977.429	0.25
978.156	-0.75
978.882	1.25
979.609	0.25
980.335	-0.75
981.062	-1.75
981.788	0.25
982.514	1.25
983.24	-0.75
983.967	-2.75
984.693	-0.75
985.419	-0.75
986.144	0.25
986.87	-0.75
987.596	-1.75
988.322	1.25
989.047	0.25
989.773	-0.75
990.498	1.25
991.224	0.25
991.949	-2.75
992.674	-2.75
993.399	1.25
994.124	0.25
994.849	-0.75
995.574	1.25
996.299	-1.75
997.024	-0.75
997.749	-0.75
998.473	-0.75
999.198	-0.75
999.922	-1.75
1000.647	0.25
1001.371	5.25
1002.095	-0.75
1002.82	-0.75
1003.544	0.25
1004.268	3.25
1004.992	1.25
1005.716	1.25
1006.439	-0.75
1007.163	0.25
1007.887	0.25
1008.611	0.25
1009.334	-1.75
1010.058	2.25
1010.781	-0.75
1011.504	-0.75
1012.228	1.25
1012.951	-0.75
1013.674	-0.75
1014.397	-1.75
1015.12	-0.75
