节点500_285_QEPB04081__661__15-06-32-989.txt的数据

Date: Wed Nov 12 15:06:32 CST 2025
User: PC
Spectrometer: QEPB0408
触发模式: 0
积分时间 (秒): 1.000000E-2
Scans to average: 1
启用暗噪声校正: true
启用非线性校正: false
滑动平均宽度: 0
X轴模式: Wavelengths
Number of Pixels in Spectrum: 1044
>>>>>Begin Spectral Data<<<<<
220.843	4.12
221.644	3.12
222.444	0.12
223.244	0.12
224.045	1.12
224.845	2.12
225.645	2.12
226.445	2.12
227.245	2.12
228.045	1.12
228.845	2.12
229.645	3.12
230.444	3.12
231.244	2.12
232.043	4.12
232.843	3.12
233.642	2.12
234.442	4.12
235.241	2.12
236.04	5.12
236.839	3.12
237.638	5.12
238.437	6.12
239.236	5.12
240.035	6.12
240.833	0.12
241.632	5.12
242.43	4.12
243.229	4.12
244.027	4.12
244.826	5.12
245.624	4.12
246.422	4.12
247.22	7.12
248.018	4.12
248.816	5.12
249.614	6.12
250.412	5.12
251.21	9.12
252.007	8.12
252.805	7.12
253.602	7.12
254.4	6.12
255.197	6.12
255.994	6.12
256.791	6.12
257.589	9.12
258.386	10.12
259.183	7.12
259.979	7.12
260.776	11.12
261.573	7.12
262.37	10.12
263.166	10.12
263.963	11.12
264.759	8.12
265.556	10.12
266.352	12.12
267.148	11.12
267.944	12.12
268.74	11.12
269.536	14.12
270.332	13.12
271.128	14.12
271.924	16.12
272.719	14.12
273.515	14.12
274.311	15.12
275.106	16.12
275.901	17.12
276.697	13.12
277.492	16.12
278.287	16.12
279.082	15.12
279.877	19.12
280.672	16.12
281.467	20.12
282.262	17.12
283.056	19.12
283.851	15.12
284.646	18.12
285.44	16.12
286.234	15.12
287.029	17.12
287.823	19.12
288.617	18.12
289.411	19.12
290.205	14.12
290.999	16.12
291.793	15.12
292.587	16.12
293.381	15.12
294.174	12.12
294.968	14.12
295.761	16.12
296.555	16.12
297.348	13.12
298.141	13.12
298.935	17.12
299.728	15.12
300.521	15.12
301.314	15.12
302.107	13.12
302.899	10.12
303.692	13.12
304.485	14.12
305.277	11.12
306.07	12.12
306.862	12.12
307.655	15.12
308.447	10.12
309.239	11.12
310.031	14.12
310.823	9.12
311.615	9.12
312.407	9.12
313.199	12.12
313.991	10.12
314.783	10.12
315.574	9.12
316.366	7.12
317.157	8.12
317.949	7.12
318.74	10.12
319.531	10.12
320.322	8.12
321.113	7.12
321.904	6.12
322.695	8.12
323.486	11.12
324.277	6.12
325.068	7.12
325.858	9.12
326.649	9.12
327.439	5.12
328.23	7.12
329.02	6.12
329.81	6.12
330.6	5.12
331.391	7.12
332.181	6.12
332.971	5.12
333.76	4.12
334.55	7.12
335.34	7.12
336.13	7.12
336.919	7.12
337.709	6.12
338.498	5.12
339.287	6.12
340.077	6.12
340.866	6.12
341.655	6.12
342.444	4.12
343.233	7.12
344.022	7.12
344.811	8.12
345.6	7.12
346.388	6.12
347.177	8.12
347.965	5.12
348.754	7.12
349.542	5.12
350.33	5.12
351.119	3.12
351.907	7.12
352.695	5.12
353.483	8.12
354.271	7.12
355.059	6.12
355.846	6.12
356.634	8.12
357.422	8.12
358.209	5.12
358.997	6.12
359.784	4.12
360.571	5.12
361.359	4.12
362.146	6.12
362.933	2.12
363.72	6.12
364.507	6.12
365.294	6.12
366.081	5.12
366.867	5.12
367.654	4.12
368.44	4.12
369.227	5.12
370.013	4.12
370.8	4.12
371.586	8.12
372.372	5.12
373.158	4.12
373.944	3.12
374.73	4.12
375.516	6.12
376.302	4.12
377.088	3.12
377.873	8.12
378.659	4.12
379.445	3.12
380.23	6.12
381.015	8.12
381.801	4.12
382.586	5.12
383.371	6.12
384.156	7.12
384.941	5.12
385.726	6.12
386.511	4.12
387.296	6.12
388.08	6.12
388.865	7.12
389.649	8.12
390.434	5.12
391.218	8.12
392.003	6.12
392.787	5.12
393.571	6.12
394.355	5.12
395.139	7.12
395.923	5.12
396.707	6.12
397.491	6.12
398.274	5.12
399.058	4.12
399.842	6.12
400.625	5.12
401.408	9.12
402.192	7.12
402.975	7.12
403.758	6.12
404.541	7.12
405.324	9.12
406.107	9.12
406.89	7.12
407.673	7.12
408.456	5.12
409.238	6.12
410.021	6.12
410.803	7.12
411.586	8.12
412.368	9.12
413.151	8.12
413.933	9.12
414.715	9.12
415.497	8.12
416.279	8.12
417.061	8.12
417.843	8.12
418.624	11.12
419.406	11.12
420.188	8.12
420.969	11.12
421.751	10.12
422.532	10.12
423.313	9.12
424.095	10.12
424.876	10.12
425.657	12.12
426.438	12.12
427.219	12.12
428	12.12
428.78	14.12
429.561	10.12
430.342	12.12
431.122	14.12
431.903	14.12
432.683	14.12
433.464	13.12
434.244	17.12
435.024	17.12
435.804	18.12
436.584	20.12
437.364	18.12
438.144	18.12
438.924	18.12
439.704	21.12
440.483	21.12
441.263	22.12
442.042	26.12
442.822	27.12
443.601	30.12
444.38	31.12
445.16	37.12
445.939	34.12
446.718	38.12
447.497	40.12
448.276	44.12
449.054	47.12
449.833	52.12
450.612	54.12
451.391	64.12
452.169	66.12
452.948	76.12
453.726	82.12
454.504	91.12
455.282	100.12
456.061	112.12
456.839	121.12
457.617	135.12
458.395	148.12
459.172	162.12
459.95	184.12
460.728	203.12
461.506	227.12
462.283	254.12
463.061	277.12
463.838	314.12
464.615	349.12
465.393	388.12
466.17	434.12
466.947	480.12
467.724	535.12
468.501	595.12
469.278	662.12
470.055	717.12
470.831	806.12
471.608	884.12
472.385	983.12
473.161	1084.12
473.938	1202.12
474.714	1337.12
475.49	1449.12
476.266	1625.12
477.043	1769.12
477.819	1949.12
478.595	2122.12
479.371	2336.12
480.146	2568.12
480.922	2807.12
481.698	3052.12
482.473	3352.12
483.249	3719.12
484.024	4054.12
484.8	4444.12
485.575	4828.12
486.35	5291.12
487.126	5729.12
487.901	6245.12
488.676	6812.12
489.451	7437.12
490.225	8116.12
491	8803.12
491.775	9554.12
492.55	10407.12
493.324	11248.12
494.099	12058.12
494.873	12976.12
495.647	13938.12
496.422	14950.12
497.196	16022.12
497.97	17019.12
498.744	18127.12
499.518	19285.12
500.292	20308.12
501.066	21308.12
501.839	22227.12
502.613	23209.12
503.387	23976.12
504.16	24689.12
504.934	25130.12
505.707	25486.12
506.48	25639.12
507.253	25749.12
508.027	25667.12
508.8	25633.12
509.573	25383.12
510.346	25009.12
511.118	24400.12
511.891	23709.12
512.664	23126.12
513.437	22393.12
514.209	21479.12
514.982	20694.12
515.754	19901.12
516.526	19107.12
517.298	18295.12
518.071	17555.12
518.843	16859.12
519.615	16290.12
520.387	15620.12
521.159	14963.12
521.93	14365.12
522.702	13848.12
523.474	13234.12
524.245	12643.12
525.017	12137.12
525.788	11663.12
526.56	11154.12
527.331	10679.12
528.102	10240.12
528.873	9770.12
529.644	9320.12
530.415	8888.12
531.186	8459.12
531.957	8023.12
532.728	7660.12
533.498	7317.12
534.269	6809.12
535.039	6506.12
535.81	6162.12
536.58	5810.12
537.351	5482.12
538.121	5190.12
538.891	4915.12
539.661	4665.12
540.431	4379.12
541.201	4148.12
541.971	3913.12
542.741	3721.12
543.51	3546.12
544.28	3380.12
545.05	3206.12
545.819	3063.12
546.588	2880.12
547.358	2766.12
548.127	2622.12
548.896	2507.12
549.665	2362.12
550.434	2225.12
551.203	2122.12
551.972	2015.12
552.741	1897.12
553.51	1805.12
554.278	1700.12
555.047	1617.12
555.815	1531.12
556.584	1436.12
557.352	1348.12
558.121	1288.12
558.889	1202.12
559.657	1149.12
560.425	1088.12
561.193	1020.12
561.961	963.12
562.729	915.12
563.496	869.12
564.264	805.12
565.032	768.12
565.799	718.12
566.567	686.12
567.334	654.12
568.101	616.12
568.869	582.12
569.636	548.12
570.403	513.12
571.17	480.12
571.937	462.12
572.704	421.12
573.471	412.12
574.237	388.12
575.004	361.12
575.771	335.12
576.537	329.12
577.303	309.12
578.07	291.12
578.836	270.12
579.602	257.12
580.368	236.12
581.134	230.12
581.9	218.12
582.666	204.12
583.432	191.12
584.198	180.12
584.964	177.12
585.729	165.12
586.495	158.12
587.26	150.12
588.025	138.12
588.791	135.12
589.556	126.12
590.321	118.12
591.086	114.12
591.851	110.12
592.616	107.12
593.381	91.12
594.146	93.12
594.911	87.12
595.675	80.12
596.44	81.12
597.204	74.12
597.969	70.12
598.733	67.12
599.497	65.12
600.261	62.12
601.025	60.12
601.79	60.12
602.553	55.12
603.317	56.12
604.081	49.12
604.845	51.12
605.609	44.12
606.372	40.12
607.136	41.12
607.899	45.12
608.662	39.12
609.426	40.12
610.189	37.12
610.952	33.12
611.715	35.12
612.478	34.12
613.241	31.12
614.004	29.12
614.767	31.12
615.529	27.12
616.292	27.12
617.055	26.12
617.817	25.12
618.579	24.12
619.342	23.12
620.104	23.12
620.866	24.12
621.628	18.12
622.39	20.12
623.152	20.12
623.914	19.12
624.676	17.12
625.438	19.12
626.199	16.12
626.961	14.12
627.722	17.12
628.484	14.12
629.245	18.12
630.006	16.12
630.768	13.12
631.529	16.12
632.29	11.12
633.051	14.12
633.812	13.12
634.573	12.12
635.333	13.12
636.094	10.12
636.855	11.12
637.615	9.12
638.376	13.12
639.136	10.12
639.896	10.12
640.657	9.12
641.417	9.12
642.177	9.12
642.937	9.12
643.697	9.12
644.457	7.12
645.216	9.12
645.976	8.12
646.736	8.12
647.495	5.12
648.255	6.12
649.014	9.12
649.774	5.12
650.533	6.12
651.292	7.12
652.051	7.12
652.81	7.12
653.569	7.12
654.328	7.12
655.087	7.12
655.846	5.12
656.604	7.12
657.363	6.12
658.121	8.12
658.88	4.12
659.638	4.12
660.397	5.12
661.155	6.12
661.913	7.12
662.671	5.12
663.429	6.12
664.187	6.12
664.945	3.12
665.703	5.12
666.46	4.12
667.218	6.12
667.976	6.12
668.733	5.12
669.49	5.12
670.248	4.12
671.005	4.12
671.762	5.12
672.519	7.12
673.276	5.12
674.033	7.12
674.79	6.12
675.547	4.12
676.304	6.12
677.06	4.12
677.817	3.12
678.574	2.12
679.33	4.12
680.086	3.12
680.843	4.12
681.599	5.12
682.355	6.12
683.111	5.12
683.867	5.12
684.623	3.12
685.379	6.12
686.135	5.12
686.89	4.12
687.646	6.12
688.402	2.12
689.157	3.12
689.912	4.12
690.668	4.12
691.423	2.12
692.178	3.12
692.933	4.12
693.688	5.12
694.443	6.12
695.198	4.12
695.953	7.12
696.708	4.12
697.462	5.12
698.217	3.12
698.972	7.12
699.726	5.12
700.48	2.12
701.235	5.12
701.989	3.12
702.743	5.12
703.497	3.12
704.251	4.12
705.005	5.12
705.759	4.12
706.513	4.12
707.266	2.12
708.02	5.12
708.774	5.12
709.527	4.12
710.28	3.12
711.034	4.12
711.787	4.12
712.54	3.12
713.293	2.12
714.046	4.12
714.799	4.12
715.552	3.12
716.305	3.12
717.058	5.12
717.81	2.12
718.563	3.12
719.315	2.12
720.068	5.12
720.82	5.12
721.573	2.12
722.325	5.12
723.077	3.12
723.829	2.12
724.581	3.12
725.333	2.12
726.085	2.12
726.836	4.12
727.588	5.12
728.34	2.12
729.091	3.12
729.843	3.12
730.594	5.12
731.346	5.12
732.097	5.12
732.848	5.12
733.599	6.12
734.35	3.12
735.101	5.12
735.852	4.12
736.603	3.12
737.354	4.12
738.104	5.12
738.855	5.12
739.605	2.12
740.356	4.12
741.106	4.12
741.856	2.12
742.607	2.12
743.357	2.12
744.107	4.12
744.857	6.12
745.607	5.12
746.357	4.12
747.106	4.12
747.856	7.12
748.606	5.12
749.355	5.12
750.105	5.12
750.854	3.12
751.603	7.12
752.353	6.12
753.102	6.12
753.851	5.12
754.6	7.12
755.349	2.12
756.098	6.12
756.847	5.12
757.595	6.12
758.344	7.12
759.093	5.12
759.841	4.12
760.589	7.12
761.338	7.12
762.086	4.12
762.834	7.12
763.582	5.12
764.331	4.12
765.079	5.12
765.826	7.12
766.574	8.12
767.322	5.12
768.07	8.12
768.817	7.12
769.565	7.12
770.312	7.12
771.06	7.12
771.807	8.12
772.554	6.12
773.302	6.12
774.049	8.12
774.796	8.12
775.543	6.12
776.29	7.12
777.036	9.12
777.783	9.12
778.53	7.12
779.276	6.12
780.023	9.12
780.769	7.12
781.516	8.12
782.262	6.12
783.008	8.12
783.754	8.12
784.5	8.12
785.246	8.12
785.992	6.12
786.738	7.12
787.484	7.12
788.23	7.12
788.975	10.12
789.721	9.12
790.466	9.12
791.212	8.12
791.957	10.12
792.702	9.12
793.447	10.12
794.193	7.12
794.938	8.12
795.683	9.12
796.427	9.12
797.172	10.12
797.917	8.12
798.662	7.12
799.406	8.12
800.151	7.12
800.895	8.12
801.64	7.12
802.384	8.12
803.128	6.12
803.872	7.12
804.616	6.12
805.36	6.12
806.104	7.12
806.848	6.12
807.592	4.12
808.336	9.12
809.079	5.12
809.823	6.12
810.566	2.12
811.31	5.12
812.053	6.12
812.796	3.12
813.539	6.12
814.283	4.12
815.026	4.12
815.769	5.12
816.511	7.12
817.254	3.12
817.997	5.12
818.74	4.12
819.482	2.12
820.225	5.12
820.967	5.12
821.71	6.12
822.452	5.12
823.194	5.12
823.936	3.12
824.678	4.12
825.42	3.12
826.162	3.12
826.904	5.12
827.646	5.12
828.388	3.12
829.129	5.12
829.871	3.12
830.612	4.12
831.354	2.12
832.095	5.12
832.836	5.12
833.577	3.12
834.319	5.12
835.06	3.12
835.801	4.12
836.542	3.12
837.282	4.12
838.023	5.12
838.764	5.12
839.504	3.12
840.245	4.12
840.985	4.12
841.726	3.12
842.466	5.12
843.206	3.12
843.946	1.12
844.687	4.12
845.427	4.12
846.166	3.12
846.906	4.12
847.646	3.12
848.386	2.12
849.125	4.12
849.865	3.12
850.605	3.12
851.344	2.12
852.083	3.12
852.823	2.12
853.562	3.12
854.301	3.12
855.04	2.12
855.779	3.12
856.518	1.12
857.257	3.12
857.995	2.12
858.734	2.12
859.473	3.12
860.211	2.12
860.95	1.12
861.688	2.12
862.426	2.12
863.165	1.12
863.903	2.12
864.641	3.12
865.379	3.12
866.117	3.12
866.855	0.12
867.593	-0.88
868.33	0.12
869.068	4.12
869.806	1.12
870.543	1.12
871.28	2.12
872.018	1.12
872.755	2.12
873.492	3.12
874.229	2.12
874.967	-0.88
875.703	-0.88
876.44	1.12
877.177	2.12
877.914	0.12
878.651	1.12
879.387	1.12
880.124	2.12
880.86	1.12
881.597	2.12
882.333	1.12
883.069	2.12
883.806	1.12
884.542	2.12
885.278	4.12
886.014	2.12
886.749	1.12
887.485	-0.88
888.221	1.12
888.957	0.12
889.692	0.12
890.428	0.12
891.163	1.12
891.899	2.12
892.634	-0.88
893.369	2.12
894.104	1.12
894.839	2.12
895.574	2.12
896.309	0.12
897.044	0.12
897.779	1.12
898.514	1.12
899.248	3.12
899.983	0.12
900.717	1.12
901.452	0.12
902.186	0.12
902.92	2.12
903.654	3.12
904.389	2.12
905.123	1.12
905.857	0.12
906.59	1.12
907.324	0.12
908.058	0.12
908.792	1.12
909.525	0.12
910.259	-0.88
910.992	0.12
911.726	1.12
912.459	1.12
913.192	1.12
913.925	0.12
914.658	2.12
915.391	-0.88
916.124	3.12
916.857	1.12
917.59	1.12
918.323	-0.88
919.055	-0.88
919.788	0.12
920.521	-0.88
921.253	-0.88
921.985	-0.88
922.718	-0.88
923.45	2.12
924.182	1.12
924.914	0.12
925.646	0.12
926.378	1.12
927.11	1.12
927.841	2.12
928.573	0.12
929.305	0.12
930.036	1.12
930.768	-0.88
931.499	1.12
932.23	1.12
932.962	3.12
933.693	-1.88
934.424	-0.88
935.155	1.12
935.886	-1.88
936.617	1.12
937.348	1.12
938.078	1.12
938.809	0.12
939.54	1.12
940.27	-1.88
941.001	2.12
941.731	3.12
942.461	0.12
943.191	0.12
943.922	2.12
944.652	0.12
945.382	2.12
946.112	0.12
946.841	-0.88
947.571	0.12
948.301	2.12
949.031	0.12
949.76	0.12
950.49	0.12
951.219	-0.88
951.948	0.12
952.678	1.12
953.407	1.12
954.136	2.12
954.865	1.12
955.594	-0.88
956.323	2.12
957.052	-0.88
957.78	-0.88
958.509	0.12
959.238	2.12
959.966	0.12
960.695	1.12
961.423	1.12
962.151	1.12
962.88	2.12
963.608	0.12
964.336	-0.88
965.064	1.12
965.792	-0.88
966.52	2.12
967.247	2.12
967.975	-0.88
968.703	1.12
969.43	1.12
970.158	0.12
970.885	1.12
971.613	2.12
972.34	2.12
973.067	1.12
973.794	2.12
974.521	0.12
975.248	2.12
975.975	0.12
976.702	0.12
977.429	-1.88
978.156	2.12
978.882	1.12
979.609	0.12
980.335	1.12
981.062	-0.88
981.788	-1.88
982.514	-0.88
983.24	2.12
983.967	1.12
984.693	1.12
985.419	1.12
986.144	-2.88
986.87	1.12
987.596	-0.88
988.322	2.12
989.047	-1.88
989.773	-1.88
990.498	-0.88
991.224	0.12
991.949	1.12
992.674	1.12
993.399	0.12
994.124	-0.88
994.849	0.12
995.574	2.12
996.299	-0.88
997.024	0.12
997.749	-1.88
998.473	-0.88
999.198	1.12
999.922	-1.88
1000.647	-1.88
1001.371	3.12
1002.095	0.12
1002.82	-1.88
1003.544	-0.88
1004.268	3.12
1004.992	1.12
1005.716	3.12
1006.439	-0.88
1007.163	2.12
1007.887	-1.88
1008.611	0.12
1009.334	-0.88
1010.058	1.12
1010.781	-0.88
1011.504	-0.88
1012.228	1.12
1012.951	0.12
1013.674	-0.88
1014.397	1.12
1015.12	-0.88
