节点500_285_QEPB04081__663__15-06-34-976.txt的数据

Date: Wed Nov 12 15:06:34 CST 2025
User: PC
Spectrometer: QEPB0408
触发模式: 0
积分时间 (秒): 1.000000E-2
Scans to average: 1
启用暗噪声校正: true
启用非线性校正: false
滑动平均宽度: 0
X轴模式: Wavelengths
Number of Pixels in Spectrum: 1044
>>>>>Begin Spectral Data<<<<<
220.843	1.25
221.644	1.25
222.444	0.25
223.244	2.25
224.045	3.25
224.845	2.25
225.645	3.25
226.445	1.25
227.245	2.25
228.045	0.25
228.845	3.25
229.645	4.25
230.444	1.25
231.244	3.25
232.043	2.25
232.843	2.25
233.642	2.25
234.442	3.25
235.241	5.25
236.04	3.25
236.839	5.25
237.638	2.25
238.437	3.25
239.236	3.25
240.035	4.25
240.833	5.25
241.632	4.25
242.43	5.25
243.229	4.25
244.027	4.25
244.826	5.25
245.624	5.25
246.422	6.25
247.22	2.25
248.018	5.25
248.816	5.25
249.614	6.25
250.412	6.25
251.21	4.25
252.007	6.25
252.805	6.25
253.602	6.25
254.4	5.25
255.197	8.25
255.994	7.25
256.791	8.25
257.589	8.25
258.386	8.25
259.183	10.25
259.979	7.25
260.776	10.25
261.573	10.25
262.37	9.25
263.166	8.25
263.963	11.25
264.759	11.25
265.556	11.25
266.352	11.25
267.148	12.25
267.944	12.25
268.74	12.25
269.536	12.25
270.332	13.25
271.128	14.25
271.924	15.25
272.719	16.25
273.515	13.25
274.311	15.25
275.106	15.25
275.901	17.25
276.697	15.25
277.492	14.25
278.287	19.25
279.082	17.25
279.877	15.25
280.672	19.25
281.467	18.25
282.262	17.25
283.056	17.25
283.851	16.25
284.646	19.25
285.44	17.25
286.234	15.25
287.029	20.25
287.823	20.25
288.617	17.25
289.411	16.25
290.205	15.25
290.999	17.25
291.793	20.25
292.587	14.25
293.381	17.25
294.174	13.25
294.968	16.25
295.761	17.25
296.555	15.25
297.348	14.25
298.141	14.25
298.935	16.25
299.728	13.25
300.521	13.25
301.314	13.25
302.107	13.25
302.899	13.25
303.692	10.25
304.485	10.25
305.277	12.25
306.07	13.25
306.862	14.25
307.655	9.25
308.447	13.25
309.239	10.25
310.031	10.25
310.823	11.25
311.615	11.25
312.407	10.25
313.199	8.25
313.991	11.25
314.783	11.25
315.574	11.25
316.366	7.25
317.157	11.25
317.949	9.25
318.74	7.25
319.531	10.25
320.322	9.25
321.113	6.25
321.904	8.25
322.695	6.25
323.486	8.25
324.277	5.25
325.068	6.25
325.858	8.25
326.649	5.25
327.439	7.25
328.23	6.25
329.02	8.25
329.81	9.25
330.6	5.25
331.391	6.25
332.181	6.25
332.971	5.25
333.76	5.25
334.55	7.25
335.34	4.25
336.13	6.25
336.919	7.25
337.709	6.25
338.498	7.25
339.287	3.25
340.077	5.25
340.866	7.25
341.655	4.25
342.444	5.25
343.233	5.25
344.022	5.25
344.811	2.25
345.6	5.25
346.388	6.25
347.177	5.25
347.965	8.25
348.754	3.25
349.542	5.25
350.33	7.25
351.119	9.25
351.907	6.25
352.695	6.25
353.483	6.25
354.271	4.25
355.059	7.25
355.846	5.25
356.634	6.25
357.422	7.25
358.209	6.25
358.997	7.25
359.784	6.25
360.571	8.25
361.359	6.25
362.146	3.25
362.933	6.25
363.72	4.25
364.507	7.25
365.294	6.25
366.081	7.25
366.867	6.25
367.654	7.25
368.44	7.25
369.227	5.25
370.013	6.25
370.8	4.25
371.586	7.25
372.372	5.25
373.158	3.25
373.944	2.25
374.73	4.25
375.516	7.25
376.302	3.25
377.088	4.25
377.873	6.25
378.659	3.25
379.445	5.25
380.23	5.25
381.015	6.25
381.801	4.25
382.586	7.25
383.371	4.25
384.156	4.25
384.941	6.25
385.726	6.25
386.511	6.25
387.296	4.25
388.08	3.25
388.865	7.25
389.649	8.25
390.434	6.25
391.218	4.25
392.003	5.25
392.787	5.25
393.571	8.25
394.355	6.25
395.139	6.25
395.923	8.25
396.707	6.25
397.491	7.25
398.274	6.25
399.058	8.25
399.842	7.25
400.625	2.25
401.408	9.25
402.192	8.25
402.975	7.25
403.758	7.25
404.541	4.25
405.324	9.25
406.107	6.25
406.89	8.25
407.673	8.25
408.456	7.25
409.238	7.25
410.021	9.25
410.803	7.25
411.586	7.25
412.368	8.25
413.151	8.25
413.933	7.25
414.715	10.25
415.497	8.25
416.279	10.25
417.061	10.25
417.843	9.25
418.624	7.25
419.406	9.25
420.188	8.25
420.969	9.25
421.751	10.25
422.532	12.25
423.313	10.25
424.095	12.25
424.876	9.25
425.657	12.25
426.438	13.25
427.219	12.25
428	13.25
428.78	13.25
429.561	14.25
430.342	13.25
431.122	14.25
431.903	16.25
432.683	16.25
433.464	14.25
434.244	16.25
435.024	19.25
435.804	18.25
436.584	16.25
437.364	19.25
438.144	21.25
438.924	23.25
439.704	20.25
440.483	24.25
441.263	22.25
442.042	27.25
442.822	26.25
443.601	30.25
444.38	28.25
445.16	35.25
445.939	35.25
446.718	38.25
447.497	44.25
448.276	44.25
449.054	47.25
449.833	52.25
450.612	57.25
451.391	60.25
452.169	63.25
452.948	73.25
453.726	81.25
454.504	92.25
455.282	98.25
456.061	112.25
456.839	121.25
457.617	132.25
458.395	148.25
459.172	164.25
459.95	184.25
460.728	202.25
461.506	226.25
462.283	253.25
463.061	278.25
463.838	316.25
464.615	343.25
465.393	387.25
466.17	434.25
466.947	473.25
467.724	543.25
468.501	594.25
469.278	655.25
470.055	732.25
470.831	799.25
471.608	890.25
472.385	998.25
473.161	1105.25
473.938	1215.25
474.714	1339.25
475.49	1462.25
476.266	1601.25
477.043	1776.25
477.819	1923.25
478.595	2122.25
479.371	2334.25
480.146	2584.25
480.922	2802.25
481.698	3068.25
482.473	3367.25
483.249	3703.25
484.024	4027.25
484.8	4425.25
485.575	4829.25
486.35	5262.25
487.126	5700.25
487.901	6259.25
488.676	6805.25
489.451	7453.25
490.225	8073.25
491	8794.25
491.775	9592.25
492.55	10378.25
493.324	11203.25
494.099	12024.25
494.873	12947.25
495.647	13913.25
496.422	14944.25
497.196	16012.25
497.97	17068.25
498.744	18103.25
499.518	19152.25
500.292	20282.25
501.066	21319.25
501.839	22208.25
502.613	23133.25
503.387	24017.25
504.16	24695.25
504.934	25107.25
505.707	25455.25
506.48	25641.25
507.253	25776.25
508.027	25725.25
508.8	25658.25
509.573	25373.25
510.346	24931.25
511.118	24377.25
511.891	23876.25
512.664	23029.25
513.437	22375.25
514.209	21521.25
514.982	20766.25
515.754	19886.25
516.526	19075.25
517.298	18226.25
518.071	17530.25
518.843	16881.25
519.615	16226.25
520.387	15580.25
521.159	14939.25
521.93	14370.25
522.702	13830.25
523.474	13298.25
524.245	12705.25
525.017	12136.25
525.788	11710.25
526.56	11186.25
527.331	10678.25
528.102	10254.25
528.873	9759.25
529.644	9317.25
530.415	8891.25
531.186	8431.25
531.957	8017.25
532.728	7666.25
533.498	7264.25
534.269	6871.25
535.039	6518.25
535.81	6142.25
536.58	5816.25
537.351	5488.25
538.121	5172.25
538.891	4914.25
539.661	4662.25
540.431	4398.25
541.201	4143.25
541.971	3929.25
542.741	3729.25
543.51	3550.25
544.28	3367.25
545.05	3202.25
545.819	3026.25
546.588	2879.25
547.358	2743.25
548.127	2619.25
548.896	2487.25
549.665	2367.25
550.434	2254.25
551.203	2122.25
551.972	2002.25
552.741	1884.25
553.51	1809.25
554.278	1709.25
555.047	1614.25
555.815	1531.25
556.584	1436.25
557.352	1355.25
558.121	1285.25
558.889	1201.25
559.657	1150.25
560.425	1072.25
561.193	1019.25
561.961	953.25
562.729	912.25
563.496	862.25
564.264	808.25
565.032	765.25
565.799	730.25
566.567	692.25
567.334	648.25
568.101	613.25
568.869	581.25
569.636	547.25
570.403	511.25
571.17	490.25
571.937	460.25
572.704	432.25
573.471	404.25
574.237	390.25
575.004	370.25
575.771	339.25
576.537	318.25
577.303	300.25
578.07	291.25
578.836	264.25
579.602	250.25
580.368	244.25
581.134	224.25
581.9	222.25
582.666	199.25
583.432	192.25
584.198	182.25
584.964	180.25
585.729	167.25
586.495	157.25
587.26	146.25
588.025	138.25
588.791	132.25
589.556	122.25
590.321	117.25
591.086	110.25
591.851	106.25
592.616	102.25
593.381	97.25
594.146	98.25
594.911	89.25
595.675	85.25
596.44	78.25
597.204	75.25
597.969	74.25
598.733	66.25
599.497	67.25
600.261	65.25
601.025	55.25
601.79	57.25
602.553	51.25
603.317	56.25
604.081	51.25
604.845	50.25
605.609	50.25
606.372	45.25
607.136	42.25
607.899	42.25
608.662	38.25
609.426	36.25
610.189	33.25
610.952	34.25
611.715	33.25
612.478	34.25
613.241	30.25
614.004	30.25
614.767	30.25
615.529	27.25
616.292	25.25
617.055	26.25
617.817	28.25
618.579	23.25
619.342	26.25
620.104	21.25
620.866	23.25
621.628	20.25
622.39	17.25
623.152	21.25
623.914	20.25
624.676	19.25
625.438	19.25
626.199	16.25
626.961	18.25
627.722	14.25
628.484	16.25
629.245	13.25
630.006	14.25
630.768	14.25
631.529	13.25
632.29	13.25
633.051	13.25
633.812	10.25
634.573	12.25
635.333	10.25
636.094	9.25
636.855	10.25
637.615	10.25
638.376	8.25
639.136	10.25
639.896	9.25
640.657	9.25
641.417	10.25
642.177	9.25
642.937	10.25
643.697	8.25
644.457	8.25
645.216	8.25
645.976	8.25
646.736	9.25
647.495	9.25
648.255	9.25
649.014	9.25
649.774	9.25
650.533	8.25
651.292	5.25
652.051	5.25
652.81	8.25
653.569	7.25
654.328	6.25
655.087	8.25
655.846	6.25
656.604	5.25
657.363	7.25
658.121	6.25
658.88	6.25
659.638	6.25
660.397	5.25
661.155	7.25
661.913	5.25
662.671	5.25
663.429	6.25
664.187	4.25
664.945	4.25
665.703	5.25
666.46	7.25
667.218	6.25
667.976	6.25
668.733	7.25
669.49	5.25
670.248	5.25
671.005	4.25
671.762	4.25
672.519	2.25
673.276	3.25
674.033	7.25
674.79	4.25
675.547	5.25
676.304	2.25
677.06	6.25
677.817	4.25
678.574	7.25
679.33	4.25
680.086	5.25
680.843	4.25
681.599	6.25
682.355	4.25
683.111	5.25
683.867	4.25
684.623	3.25
685.379	3.25
686.135	3.25
686.89	2.25
687.646	2.25
688.402	3.25
689.157	5.25
689.912	3.25
690.668	1.25
691.423	4.25
692.178	3.25
692.933	4.25
693.688	2.25
694.443	3.25
695.198	2.25
695.953	4.25
696.708	4.25
697.462	4.25
698.217	5.25
698.972	3.25
699.726	3.25
700.48	4.25
701.235	2.25
701.989	3.25
702.743	2.25
703.497	3.25
704.251	3.25
705.005	3.25
705.759	3.25
706.513	4.25
707.266	4.25
708.02	4.25
708.774	3.25
709.527	3.25
710.28	4.25
711.034	5.25
711.787	4.25
712.54	3.25
713.293	3.25
714.046	4.25
714.799	3.25
715.552	2.25
716.305	4.25
717.058	5.25
717.81	4.25
718.563	3.25
719.315	2.25
720.068	5.25
720.82	3.25
721.573	6.25
722.325	3.25
723.077	4.25
723.829	1.25
724.581	3.25
725.333	5.25
726.085	5.25
726.836	3.25
727.588	3.25
728.34	3.25
729.091	3.25
729.843	3.25
730.594	4.25
731.346	3.25
732.097	5.25
732.848	2.25
733.599	4.25
734.35	4.25
735.101	3.25
735.852	5.25
736.603	4.25
737.354	4.25
738.104	4.25
738.855	4.25
739.605	4.25
740.356	3.25
741.106	5.25
741.856	2.25
742.607	7.25
743.357	6.25
744.107	3.25
744.857	3.25
745.607	4.25
746.357	4.25
747.106	5.25
747.856	6.25
748.606	6.25
749.355	3.25
750.105	7.25
750.854	4.25
751.603	5.25
752.353	3.25
753.102	5.25
753.851	6.25
754.6	7.25
755.349	7.25
756.098	6.25
756.847	6.25
757.595	4.25
758.344	6.25
759.093	4.25
759.841	3.25
760.589	8.25
761.338	3.25
762.086	7.25
762.834	6.25
763.582	5.25
764.331	4.25
765.079	7.25
765.826	5.25
766.574	8.25
767.322	6.25
768.07	5.25
768.817	7.25
769.565	9.25
770.312	5.25
771.06	6.25
771.807	5.25
772.554	7.25
773.302	8.25
774.049	7.25
774.796	7.25
775.543	6.25
776.29	7.25
777.036	7.25
777.783	7.25
778.53	7.25
779.276	6.25
780.023	7.25
780.769	6.25
781.516	9.25
782.262	9.25
783.008	7.25
783.754	9.25
784.5	9.25
785.246	10.25
785.992	9.25
786.738	9.25
787.484	6.25
788.23	9.25
788.975	8.25
789.721	7.25
790.466	10.25
791.212	6.25
791.957	8.25
792.702	8.25
793.447	5.25
794.193	6.25
794.938	7.25
795.683	10.25
796.427	7.25
797.172	7.25
797.917	8.25
798.662	8.25
799.406	7.25
800.151	7.25
800.895	7.25
801.64	8.25
802.384	7.25
803.128	6.25
803.872	8.25
804.616	7.25
805.36	6.25
806.104	7.25
806.848	8.25
807.592	5.25
808.336	7.25
809.079	8.25
809.823	5.25
810.566	5.25
811.31	6.25
812.053	3.25
812.796	8.25
813.539	6.25
814.283	5.25
815.026	6.25
815.769	3.25
816.511	5.25
817.254	6.25
817.997	5.25
818.74	4.25
819.482	4.25
820.225	4.25
820.967	3.25
821.71	4.25
822.452	3.25
823.194	5.25
823.936	7.25
824.678	6.25
825.42	6.25
826.162	4.25
826.904	2.25
827.646	3.25
828.388	6.25
829.129	3.25
829.871	4.25
830.612	3.25
831.354	5.25
832.095	3.25
832.836	5.25
833.577	2.25
834.319	4.25
835.06	4.25
835.801	4.25
836.542	5.25
837.282	4.25
838.023	4.25
838.764	1.25
839.504	4.25
840.245	2.25
840.985	3.25
841.726	4.25
842.466	3.25
843.206	2.25
843.946	4.25
844.687	1.25
845.427	1.25
846.166	3.25
846.906	1.25
847.646	3.25
848.386	3.25
849.125	6.25
849.865	3.25
850.605	4.25
851.344	2.25
852.083	3.25
852.823	2.25
853.562	3.25
854.301	4.25
855.04	4.25
855.779	4.25
856.518	2.25
857.257	3.25
857.995	2.25
858.734	3.25
859.473	2.25
860.211	3.25
860.95	2.25
861.688	0.25
862.426	5.25
863.165	2.25
863.903	1.25
864.641	1.25
865.379	2.25
866.117	2.25
866.855	2.25
867.593	1.25
868.33	3.25
869.068	1.25
869.806	1.25
870.543	0.25
871.28	2.25
872.018	2.25
872.755	-0.75
873.492	2.25
874.229	1.25
874.967	2.25
875.703	0.25
876.44	2.25
877.177	2.25
877.914	0.25
878.651	2.25
879.387	1.25
880.124	-0.75
880.86	1.25
881.597	1.25
882.333	3.25
883.069	3.25
883.806	4.25
884.542	0.25
885.278	0.25
886.014	2.25
886.749	0.25
887.485	-1.75
888.221	2.25
888.957	2.25
889.692	1.25
890.428	1.25
891.163	-0.75
891.899	0.25
892.634	1.25
893.369	1.25
894.104	2.25
894.839	2.25
895.574	1.25
896.309	1.25
897.044	1.25
897.779	1.25
898.514	2.25
899.248	1.25
899.983	0.25
900.717	2.25
901.452	1.25
902.186	0.25
902.92	2.25
903.654	0.25
904.389	2.25
905.123	-1.75
905.857	0.25
906.59	1.25
907.324	0.25
908.058	0.25
908.792	1.25
909.525	2.25
910.259	3.25
910.992	2.25
911.726	1.25
912.459	-0.75
913.192	2.25
913.925	0.25
914.658	2.25
915.391	2.25
916.124	-1.75
916.857	1.25
917.59	-0.75
918.323	1.25
919.055	1.25
919.788	-1.75
920.521	2.25
921.253	1.25
921.985	1.25
922.718	1.25
923.45	1.25
924.182	1.25
924.914	1.25
925.646	-0.75
926.378	0.25
927.11	-0.75
927.841	-0.75
928.573	0.25
929.305	0.25
930.036	0.25
930.768	1.25
931.499	-2.75
932.23	1.25
932.962	-1.75
933.693	2.25
934.424	1.25
935.155	3.25
935.886	1.25
936.617	0.25
937.348	2.25
938.078	-0.75
938.809	1.25
939.54	1.25
940.27	-1.75
941.001	2.25
941.731	0.25
942.461	-0.75
943.191	1.25
943.922	2.25
944.652	1.25
945.382	0.25
946.112	2.25
946.841	0.25
947.571	2.25
948.301	-0.75
949.031	0.25
949.76	2.25
950.49	0.25
951.219	-0.75
951.948	-2.75
952.678	0.25
953.407	-1.75
954.136	0.25
954.865	1.25
955.594	1.25
956.323	0.25
957.052	-0.75
957.78	2.25
958.509	-0.75
959.238	0.25
959.966	-0.75
960.695	-1.75
961.423	3.25
962.151	0.25
962.88	2.25
963.608	0.25
964.336	-0.75
965.064	0.25
965.792	1.25
966.52	0.25
967.247	2.25
967.975	1.25
968.703	1.25
969.43	-0.75
970.158	1.25
970.885	-0.75
971.613	4.25
972.34	1.25
973.067	1.25
973.794	1.25
974.521	0.25
975.248	0.25
975.975	0.25
976.702	1.25
977.429	0.25
978.156	1.25
978.882	-1.75
979.609	-0.75
980.335	-1.75
981.062	1.25
981.788	1.25
982.514	0.25
983.24	2.25
983.967	0.25
984.693	0.25
985.419	-1.75
986.144	1.25
986.87	1.25
987.596	0.25
988.322	1.25
989.047	-0.75
989.773	1.25
990.498	-1.75
991.224	1.25
991.949	-0.75
992.674	-0.75
993.399	0.25
994.124	2.25
994.849	0.25
995.574	0.25
996.299	-1.75
997.024	1.25
997.749	3.25
998.473	0.25
999.198	0.25
999.922	2.25
1000.647	1.25
1001.371	2.25
1002.095	-1.75
1002.82	0.25
1003.544	-0.75
1004.268	-0.75
1004.992	2.25
1005.716	2.25
1006.439	0.25
1007.163	1.25
1007.887	1.25
1008.611	-0.75
1009.334	0.25
1010.058	0.25
1010.781	-1.75
1011.504	-0.75
1012.228	-0.75
1012.951	2.25
1013.674	1.25
1014.397	-1.75
1015.12	-1.75
