节点500_285_QEPB04081__130__14-57-43-224.txt的数据

Date: Wed Nov 12 14:57:43 CST 2025
User: PC
Spectrometer: QEPB0408
触发模式: 0
积分时间 (秒): 1.000000E-2
Scans to average: 1
启用暗噪声校正: true
启用非线性校正: false
滑动平均宽度: 0
X轴模式: Wavelengths
Number of Pixels in Spectrum: 1044
>>>>>Begin Spectral Data<<<<<
220.843	0.25
221.644	2.25
222.444	1.25
223.244	-0.75
224.045	2.25
224.845	2.25
225.645	1.25
226.445	2.25
227.245	1.25
228.045	3.25
228.845	4.25
229.645	3.25
230.444	5.25
231.244	5.25
232.043	3.25
232.843	6.25
233.642	1.25
234.442	0.25
235.241	3.25
236.04	3.25
236.839	4.25
237.638	4.25
238.437	4.25
239.236	4.25
240.035	3.25
240.833	4.25
241.632	6.25
242.43	2.25
243.229	6.25
244.027	6.25
244.826	5.25
245.624	4.25
246.422	5.25
247.22	6.25
248.018	4.25
248.816	9.25
249.614	6.25
250.412	8.25
251.21	7.25
252.007	7.25
252.805	10.25
253.602	4.25
254.4	10.25
255.197	7.25
255.994	5.25
256.791	10.25
257.589	9.25
258.386	9.25
259.183	9.25
259.979	8.25
260.776	10.25
261.573	10.25
262.37	11.25
263.166	11.25
263.963	11.25
264.759	9.25
265.556	11.25
266.352	12.25
267.148	15.25
267.944	15.25
268.74	14.25
269.536	17.25
270.332	17.25
271.128	16.25
271.924	16.25
272.719	15.25
273.515	17.25
274.311	15.25
275.106	18.25
275.901	15.25
276.697	14.25
277.492	19.25
278.287	17.25
279.082	20.25
279.877	18.25
280.672	19.25
281.467	20.25
282.262	20.25
283.056	19.25
283.851	22.25
284.646	20.25
285.44	18.25
286.234	18.25
287.029	18.25
287.823	20.25
288.617	21.25
289.411	18.25
290.205	20.25
290.999	19.25
291.793	16.25
292.587	18.25
293.381	15.25
294.174	18.25
294.968	15.25
295.761	17.25
296.555	17.25
297.348	13.25
298.141	12.25
298.935	15.25
299.728	18.25
300.521	17.25
301.314	12.25
302.107	14.25
302.899	12.25
303.692	12.25
304.485	13.25
305.277	12.25
306.07	11.25
306.862	12.25
307.655	12.25
308.447	11.25
309.239	10.25
310.031	9.25
310.823	12.25
311.615	8.25
312.407	10.25
313.199	11.25
313.991	10.25
314.783	8.25
315.574	8.25
316.366	9.25
317.157	10.25
317.949	8.25
318.74	9.25
319.531	11.25
320.322	6.25
321.113	7.25
321.904	6.25
322.695	6.25
323.486	8.25
324.277	7.25
325.068	7.25
325.858	6.25
326.649	8.25
327.439	7.25
328.23	6.25
329.02	6.25
329.81	8.25
330.6	7.25
331.391	6.25
332.181	7.25
332.971	7.25
333.76	5.25
334.55	6.25
335.34	7.25
336.13	7.25
336.919	5.25
337.709	7.25
338.498	5.25
339.287	7.25
340.077	5.25
340.866	4.25
341.655	8.25
342.444	4.25
343.233	9.25
344.022	3.25
344.811	5.25
345.6	4.25
346.388	4.25
347.177	5.25
347.965	5.25
348.754	7.25
349.542	6.25
350.33	6.25
351.119	9.25
351.907	6.25
352.695	5.25
353.483	7.25
354.271	4.25
355.059	7.25
355.846	5.25
356.634	5.25
357.422	6.25
358.209	4.25
358.997	7.25
359.784	5.25
360.571	5.25
361.359	5.25
362.146	3.25
362.933	5.25
363.72	6.25
364.507	7.25
365.294	5.25
366.081	5.25
366.867	5.25
367.654	5.25
368.44	5.25
369.227	3.25
370.013	7.25
370.8	4.25
371.586	6.25
372.372	5.25
373.158	5.25
373.944	5.25
374.73	3.25
375.516	5.25
376.302	4.25
377.088	5.25
377.873	6.25
378.659	5.25
379.445	5.25
380.23	2.25
381.015	6.25
381.801	4.25
382.586	4.25
383.371	9.25
384.156	5.25
384.941	5.25
385.726	5.25
386.511	3.25
387.296	4.25
388.08	5.25
388.865	5.25
389.649	4.25
390.434	6.25
391.218	5.25
392.003	6.25
392.787	8.25
393.571	4.25
394.355	5.25
395.139	5.25
395.923	7.25
396.707	9.25
397.491	6.25
398.274	8.25
399.058	5.25
399.842	7.25
400.625	5.25
401.408	7.25
402.192	6.25
402.975	8.25
403.758	10.25
404.541	8.25
405.324	7.25
406.107	9.25
406.89	7.25
407.673	7.25
408.456	7.25
409.238	8.25
410.021	7.25
410.803	7.25
411.586	9.25
412.368	8.25
413.151	7.25
413.933	9.25
414.715	11.25
415.497	9.25
416.279	10.25
417.061	9.25
417.843	12.25
418.624	9.25
419.406	11.25
420.188	10.25
420.969	11.25
421.751	10.25
422.532	10.25
423.313	10.25
424.095	9.25
424.876	10.25
425.657	10.25
426.438	11.25
427.219	11.25
428	13.25
428.78	14.25
429.561	14.25
430.342	13.25
431.122	15.25
431.903	13.25
432.683	14.25
433.464	13.25
434.244	17.25
435.024	14.25
435.804	20.25
436.584	19.25
437.364	18.25
438.144	18.25
438.924	20.25
439.704	21.25
440.483	23.25
441.263	24.25
442.042	24.25
442.822	25.25
443.601	29.25
444.38	30.25
445.16	32.25
445.939	32.25
446.718	29.25
447.497	37.25
448.276	40.25
449.054	43.25
449.833	46.25
450.612	53.25
451.391	56.25
452.169	61.25
452.948	66.25
453.726	70.25
454.504	73.25
455.282	85.25
456.061	96.25
456.839	107.25
457.617	114.25
458.395	128.25
459.172	146.25
459.95	160.25
460.728	175.25
461.506	188.25
462.283	225.25
463.061	239.25
463.838	275.25
464.615	308.25
465.393	339.25
466.17	387.25
466.947	432.25
467.724	471.25
468.501	531.25
469.278	586.25
470.055	661.25
470.831	736.25
471.608	818.25
472.385	908.25
473.161	1009.25
473.938	1128.25
474.714	1257.25
475.49	1399.25
476.266	1544.25
477.043	1712.25
477.819	1912.25
478.595	2127.25
479.371	2328.25
480.146	2588.25
480.922	2865.25
481.698	3172.25
482.473	3523.25
483.249	3878.25
484.024	4267.25
484.8	4742.25
485.575	5236.25
486.35	5759.25
487.126	6349.25
487.901	6999.25
488.676	7684.25
489.451	8448.25
490.225	9270.25
491	10148.25
491.775	11095.25
492.55	12156.25
493.324	13207.25
494.099	14243.25
494.873	15391.25
495.647	16659.25
496.422	17812.25
497.196	19054.25
497.97	20385.25
498.744	21677.25
499.518	22852.25
500.292	24019.25
501.066	25052.25
501.839	26056.25
502.613	26884.25
503.387	27625.25
504.16	28186.25
504.934	28438.25
505.707	28459.25
506.48	28433.25
507.253	28240.25
508.027	27818.25
508.8	27372.25
509.573	26833.25
510.346	25978.25
511.118	25114.25
511.891	24268.25
512.664	23355.25
513.437	22425.25
514.209	21417.25
514.982	20477.25
515.754	19517.25
516.526	18667.25
517.298	17811.25
518.071	16999.25
518.843	16345.25
519.615	15764.25
520.387	15135.25
521.159	14519.25
521.93	13949.25
522.702	13344.25
523.474	12818.25
524.245	12261.25
525.017	11698.25
525.788	11280.25
526.56	10758.25
527.331	10251.25
528.102	9744.25
528.873	9299.25
529.644	8807.25
530.415	8377.25
531.186	7971.25
531.957	7562.25
532.728	7117.25
533.498	6742.25
534.269	6361.25
535.039	6000.25
535.81	5624.25
536.58	5310.25
537.351	5027.25
538.121	4743.25
538.891	4481.25
539.661	4271.25
540.431	4028.25
541.201	3800.25
541.971	3597.25
542.741	3420.25
543.51	3235.25
544.28	3089.25
545.05	2929.25
545.819	2780.25
546.588	2665.25
547.358	2522.25
548.127	2391.25
548.896	2273.25
549.665	2141.25
550.434	2054.25
551.203	1928.25
551.972	1809.25
552.741	1736.25
553.51	1637.25
554.278	1536.25
555.047	1455.25
555.815	1357.25
556.584	1284.25
557.352	1222.25
558.121	1141.25
558.889	1083.25
559.657	1027.25
560.425	958.25
561.193	913.25
561.961	864.25
562.729	795.25
563.496	769.25
564.264	721.25
565.032	688.25
565.799	652.25
566.567	608.25
567.334	581.25
568.101	540.25
568.869	517.25
569.636	482.25
570.403	457.25
571.17	427.25
571.937	407.25
572.704	388.25
573.471	368.25
574.237	340.25
575.004	322.25
575.771	307.25
576.537	287.25
577.303	276.25
578.07	256.25
578.836	241.25
579.602	221.25
580.368	214.25
581.134	204.25
581.9	189.25
582.666	180.25
583.432	167.25
584.198	161.25
584.964	157.25
585.729	144.25
586.495	137.25
587.26	133.25
588.025	125.25
588.791	114.25
589.556	112.25
590.321	104.25
591.086	99.25
591.851	94.25
592.616	89.25
593.381	87.25
594.146	83.25
594.911	77.25
595.675	79.25
596.44	75.25
597.204	69.25
597.969	65.25
598.733	59.25
599.497	61.25
600.261	57.25
601.025	56.25
601.79	53.25
602.553	48.25
603.317	49.25
604.081	46.25
604.845	44.25
605.609	42.25
606.372	43.25
607.136	35.25
607.899	38.25
608.662	36.25
609.426	32.25
610.189	34.25
610.952	30.25
611.715	32.25
612.478	29.25
613.241	27.25
614.004	28.25
614.767	26.25
615.529	25.25
616.292	23.25
617.055	25.25
617.817	25.25
618.579	22.25
619.342	22.25
620.104	20.25
620.866	22.25
621.628	20.25
622.39	19.25
623.152	18.25
623.914	17.25
624.676	16.25
625.438	15.25
626.199	15.25
626.961	16.25
627.722	14.25
628.484	14.25
629.245	13.25
630.006	13.25
630.768	13.25
631.529	15.25
632.29	14.25
633.051	13.25
633.812	10.25
634.573	12.25
635.333	10.25
636.094	13.25
636.855	13.25
637.615	9.25
638.376	10.25
639.136	9.25
639.896	10.25
640.657	9.25
641.417	10.25
642.177	8.25
642.937	10.25
643.697	9.25
644.457	8.25
645.216	7.25
645.976	7.25
646.736	6.25
647.495	7.25
648.255	7.25
649.014	6.25
649.774	7.25
650.533	4.25
651.292	4.25
652.051	5.25
652.81	7.25
653.569	6.25
654.328	6.25
655.087	6.25
655.846	7.25
656.604	7.25
657.363	6.25
658.121	7.25
658.88	6.25
659.638	6.25
660.397	6.25
661.155	4.25
661.913	4.25
662.671	5.25
663.429	7.25
664.187	5.25
664.945	5.25
665.703	4.25
666.46	5.25
667.218	6.25
667.976	5.25
668.733	5.25
669.49	3.25
670.248	6.25
671.005	5.25
671.762	6.25
672.519	5.25
673.276	2.25
674.033	5.25
674.79	4.25
675.547	4.25
676.304	3.25
677.06	3.25
677.817	4.25
678.574	3.25
679.33	2.25
680.086	3.25
680.843	3.25
681.599	2.25
682.355	3.25
683.111	4.25
683.867	3.25
684.623	5.25
685.379	3.25
686.135	5.25
686.89	5.25
687.646	4.25
688.402	2.25
689.157	2.25
689.912	3.25
690.668	4.25
691.423	4.25
692.178	3.25
692.933	3.25
693.688	3.25
694.443	6.25
695.198	5.25
695.953	4.25
696.708	3.25
697.462	6.25
698.217	4.25
698.972	4.25
699.726	4.25
700.48	2.25
701.235	3.25
701.989	1.25
702.743	4.25
703.497	5.25
704.251	3.25
705.005	6.25
705.759	2.25
706.513	1.25
707.266	3.25
708.02	2.25
708.774	1.25
709.527	3.25
710.28	1.25
711.034	2.25
711.787	4.25
712.54	2.25
713.293	3.25
714.046	5.25
714.799	3.25
715.552	4.25
716.305	2.25
717.058	4.25
717.81	4.25
718.563	5.25
719.315	2.25
720.068	5.25
720.82	5.25
721.573	3.25
722.325	5.25
723.077	6.25
723.829	6.25
724.581	4.25
725.333	4.25
726.085	4.25
726.836	4.25
727.588	4.25
728.34	6.25
729.091	6.25
729.843	5.25
730.594	3.25
731.346	5.25
732.097	6.25
732.848	4.25
733.599	4.25
734.35	3.25
735.101	5.25
735.852	3.25
736.603	5.25
737.354	6.25
738.104	2.25
738.855	5.25
739.605	3.25
740.356	5.25
741.106	3.25
741.856	3.25
742.607	3.25
743.357	4.25
744.107	5.25
744.857	5.25
745.607	8.25
746.357	7.25
747.106	3.25
747.856	4.25
748.606	4.25
749.355	6.25
750.105	5.25
750.854	7.25
751.603	3.25
752.353	5.25
753.102	7.25
753.851	5.25
754.6	6.25
755.349	4.25
756.098	6.25
756.847	6.25
757.595	6.25
758.344	6.25
759.093	6.25
759.841	6.25
760.589	6.25
761.338	8.25
762.086	6.25
762.834	6.25
763.582	6.25
764.331	5.25
765.079	7.25
765.826	9.25
766.574	6.25
767.322	7.25
768.07	9.25
768.817	6.25
769.565	7.25
770.312	7.25
771.06	8.25
771.807	8.25
772.554	8.25
773.302	8.25
774.049	5.25
774.796	9.25
775.543	9.25
776.29	11.25
777.036	9.25
777.783	7.25
778.53	9.25
779.276	7.25
780.023	8.25
780.769	6.25
781.516	10.25
782.262	9.25
783.008	8.25
783.754	12.25
784.5	6.25
785.246	10.25
785.992	6.25
786.738	10.25
787.484	8.25
788.23	8.25
788.975	10.25
789.721	8.25
790.466	8.25
791.212	11.25
791.957	8.25
792.702	9.25
793.447	6.25
794.193	11.25
794.938	8.25
795.683	6.25
796.427	8.25
797.172	7.25
797.917	6.25
798.662	7.25
799.406	8.25
800.151	5.25
800.895	8.25
801.64	8.25
802.384	7.25
803.128	8.25
803.872	8.25
804.616	5.25
805.36	6.25
806.104	4.25
806.848	5.25
807.592	6.25
808.336	7.25
809.079	6.25
809.823	7.25
810.566	5.25
811.31	6.25
812.053	5.25
812.796	6.25
813.539	7.25
814.283	5.25
815.026	6.25
815.769	5.25
816.511	5.25
817.254	6.25
817.997	6.25
818.74	6.25
819.482	4.25
820.225	3.25
820.967	6.25
821.71	3.25
822.452	3.25
823.194	3.25
823.936	5.25
824.678	3.25
825.42	5.25
826.162	3.25
826.904	3.25
827.646	4.25
828.388	2.25
829.129	0.25
829.871	5.25
830.612	3.25
831.354	1.25
832.095	3.25
832.836	1.25
833.577	4.25
834.319	1.25
835.06	4.25
835.801	3.25
836.542	3.25
837.282	2.25
838.023	1.25
838.764	4.25
839.504	2.25
840.245	2.25
840.985	5.25
841.726	4.25
842.466	2.25
843.206	1.25
843.946	3.25
844.687	1.25
845.427	2.25
846.166	3.25
846.906	3.25
847.646	6.25
848.386	1.25
849.125	4.25
849.865	0.25
850.605	4.25
851.344	1.25
852.083	4.25
852.823	5.25
853.562	2.25
854.301	2.25
855.04	5.25
855.779	3.25
856.518	2.25
857.257	1.25
857.995	2.25
858.734	0.25
859.473	5.25
860.211	-0.75
860.95	1.25
861.688	3.25
862.426	-0.75
863.165	1.25
863.903	2.25
864.641	0.25
865.379	3.25
866.117	-0.75
866.855	2.25
867.593	1.25
868.33	1.25
869.068	1.25
869.806	1.25
870.543	0.25
871.28	4.25
872.018	0.25
872.755	2.25
873.492	1.25
874.229	1.25
874.967	0.25
875.703	1.25
876.44	0.25
877.177	1.25
877.914	-0.75
878.651	0.25
879.387	1.25
880.124	1.25
880.86	1.25
881.597	2.25
882.333	-0.75
883.069	0.25
883.806	-0.75
884.542	1.25
885.278	1.25
886.014	4.25
886.749	3.25
887.485	1.25
888.221	1.25
888.957	3.25
889.692	2.25
890.428	4.25
891.163	0.25
891.899	1.25
892.634	1.25
893.369	1.25
894.104	1.25
894.839	0.25
895.574	-0.75
896.309	-0.75
897.044	0.25
897.779	1.25
898.514	1.25
899.248	-0.75
899.983	0.25
900.717	1.25
901.452	1.25
902.186	1.25
902.92	1.25
903.654	1.25
904.389	1.25
905.123	0.25
905.857	1.25
906.59	-2.75
907.324	3.25
908.058	0.25
908.792	-2.75
909.525	-0.75
910.259	-1.75
910.992	3.25
911.726	2.25
912.459	-1.75
913.192	0.25
913.925	2.25
914.658	0.25
915.391	0.25
916.124	0.25
916.857	-0.75
917.59	0.25
918.323	0.25
919.055	-0.75
919.788	1.25
920.521	2.25
921.253	2.25
921.985	0.25
922.718	2.25
923.45	2.25
924.182	1.25
924.914	0.25
925.646	0.25
926.378	1.25
927.11	1.25
927.841	-0.75
928.573	1.25
929.305	0.25
930.036	-1.75
930.768	0.25
931.499	1.25
932.23	1.25
932.962	-0.75
933.693	0.25
934.424	-0.75
935.155	2.25
935.886	-0.75
936.617	0.25
937.348	1.25
938.078	0.25
938.809	1.25
939.54	1.25
940.27	-0.75
941.001	0.25
941.731	-0.75
942.461	-2.75
943.191	-2.75
943.922	1.25
944.652	2.25
945.382	-0.75
946.112	-1.75
946.841	-0.75
947.571	0.25
948.301	-0.75
949.031	0.25
949.76	-0.75
950.49	0.25
951.219	2.25
951.948	1.25
952.678	0.25
953.407	1.25
954.136	-2.75
954.865	1.25
955.594	0.25
956.323	1.25
957.052	3.25
957.78	0.25
958.509	0.25
959.238	-0.75
959.966	0.25
960.695	-0.75
961.423	-0.75
962.151	1.25
962.88	0.25
963.608	-0.75
964.336	-0.75
965.064	-0.75
965.792	1.25
966.52	3.25
967.247	0.25
967.975	0.25
968.703	-0.75
969.43	0.25
970.158	1.25
970.885	-0.75
971.613	0.25
972.34	-0.75
973.067	-1.75
973.794	1.25
974.521	1.25
975.248	1.25
975.975	1.25
976.702	-0.75
977.429	0.25
978.156	-1.75
978.882	-0.75
979.609	-0.75
980.335	2.25
981.062	1.25
981.788	0.25
982.514	-1.75
983.24	-0.75
983.967	0.25
984.693	-0.75
985.419	0.25
986.144	1.25
986.87	-0.75
987.596	1.25
988.322	-0.75
989.047	1.25
989.773	1.25
990.498	-1.75
991.224	-0.75
991.949	-2.75
992.674	1.25
993.399	1.25
994.124	-0.75
994.849	-1.75
995.574	1.25
996.299	3.25
997.024	0.25
997.749	-0.75
998.473	0.25
999.198	0.25
999.922	1.25
1000.647	1.25
1001.371	2.25
1002.095	-0.75
1002.82	0.25
1003.544	-0.75
1004.268	2.25
1004.992	0.25
1005.716	0.25
1006.439	2.25
1007.163	1.25
1007.887	2.25
1008.611	3.25
1009.334	0.25
1010.058	0.25
1010.781	1.25
1011.504	0.25
1012.228	1.25
1012.951	-0.75
1013.674	-1.75
1014.397	2.25
1015.12	-0.75
