节点500_285_QEPB04081__506__15-03-58-381.txt的数据

Date: Wed Nov 12 15:03:58 CST 2025
User: PC
Spectrometer: QEPB0408
触发模式: 0
积分时间 (秒): 1.000000E-2
Scans to average: 1
启用暗噪声校正: true
启用非线性校正: false
滑动平均宽度: 0
X轴模式: Wavelengths
Number of Pixels in Spectrum: 1044
>>>>>Begin Spectral Data<<<<<
220.843	2.5
221.644	1.5
222.444	0.5
223.244	3.5
224.045	2.5
224.845	2.5
225.645	1.5
226.445	2.5
227.245	4.5
228.045	5.5
228.845	3.5
229.645	2.5
230.444	1.5
231.244	1.5
232.043	2.5
232.843	5.5
233.642	2.5
234.442	4.5
235.241	4.5
236.04	4.5
236.839	5.5
237.638	2.5
238.437	3.5
239.236	5.5
240.035	3.5
240.833	5.5
241.632	3.5
242.43	5.5
243.229	4.5
244.027	3.5
244.826	5.5
245.624	6.5
246.422	5.5
247.22	6.5
248.018	6.5
248.816	5.5
249.614	6.5
250.412	7.5
251.21	5.5
252.007	10.5
252.805	6.5
253.602	7.5
254.4	9.5
255.197	9.5
255.994	5.5
256.791	6.5
257.589	7.5
258.386	5.5
259.183	8.5
259.979	10.5
260.776	9.5
261.573	11.5
262.37	11.5
263.166	9.5
263.963	12.5
264.759	12.5
265.556	12.5
266.352	14.5
267.148	12.5
267.944	12.5
268.74	13.5
269.536	14.5
270.332	14.5
271.128	14.5
271.924	16.5
272.719	14.5
273.515	17.5
274.311	14.5
275.106	16.5
275.901	13.5
276.697	16.5
277.492	17.5
278.287	16.5
279.082	18.5
279.877	19.5
280.672	18.5
281.467	17.5
282.262	21.5
283.056	17.5
283.851	18.5
284.646	17.5
285.44	18.5
286.234	20.5
287.029	20.5
287.823	19.5
288.617	20.5
289.411	18.5
290.205	18.5
290.999	16.5
291.793	18.5
292.587	18.5
293.381	16.5
294.174	17.5
294.968	16.5
295.761	18.5
296.555	15.5
297.348	14.5
298.141	14.5
298.935	17.5
299.728	17.5
300.521	12.5
301.314	15.5
302.107	14.5
302.899	13.5
303.692	15.5
304.485	14.5
305.277	15.5
306.07	12.5
306.862	14.5
307.655	12.5
308.447	14.5
309.239	12.5
310.031	10.5
310.823	13.5
311.615	11.5
312.407	12.5
313.199	14.5
313.991	11.5
314.783	12.5
315.574	8.5
316.366	10.5
317.157	7.5
317.949	6.5
318.74	7.5
319.531	7.5
320.322	7.5
321.113	7.5
321.904	9.5
322.695	8.5
323.486	9.5
324.277	10.5
325.068	8.5
325.858	7.5
326.649	6.5
327.439	7.5
328.23	8.5
329.02	6.5
329.81	6.5
330.6	5.5
331.391	7.5
332.181	7.5
332.971	7.5
333.76	6.5
334.55	7.5
335.34	7.5
336.13	6.5
336.919	7.5
337.709	7.5
338.498	8.5
339.287	6.5
340.077	4.5
340.866	6.5
341.655	6.5
342.444	4.5
343.233	6.5
344.022	7.5
344.811	7.5
345.6	5.5
346.388	5.5
347.177	6.5
347.965	8.5
348.754	6.5
349.542	5.5
350.33	5.5
351.119	5.5
351.907	7.5
352.695	6.5
353.483	6.5
354.271	2.5
355.059	5.5
355.846	8.5
356.634	7.5
357.422	6.5
358.209	5.5
358.997	5.5
359.784	5.5
360.571	6.5
361.359	4.5
362.146	5.5
362.933	7.5
363.72	6.5
364.507	6.5
365.294	5.5
366.081	4.5
366.867	5.5
367.654	5.5
368.44	6.5
369.227	6.5
370.013	6.5
370.8	5.5
371.586	6.5
372.372	7.5
373.158	5.5
373.944	7.5
374.73	5.5
375.516	4.5
376.302	5.5
377.088	4.5
377.873	7.5
378.659	3.5
379.445	2.5
380.23	7.5
381.015	5.5
381.801	6.5
382.586	7.5
383.371	4.5
384.156	6.5
384.941	6.5
385.726	4.5
386.511	5.5
387.296	6.5
388.08	7.5
388.865	5.5
389.649	8.5
390.434	6.5
391.218	6.5
392.003	4.5
392.787	5.5
393.571	6.5
394.355	8.5
395.139	4.5
395.923	5.5
396.707	7.5
397.491	7.5
398.274	5.5
399.058	7.5
399.842	7.5
400.625	7.5
401.408	5.5
402.192	7.5
402.975	7.5
403.758	9.5
404.541	4.5
405.324	3.5
406.107	9.5
406.89	8.5
407.673	9.5
408.456	8.5
409.238	7.5
410.021	6.5
410.803	8.5
411.586	8.5
412.368	8.5
413.151	8.5
413.933	8.5
414.715	8.5
415.497	9.5
416.279	10.5
417.061	9.5
417.843	12.5
418.624	11.5
419.406	11.5
420.188	11.5
420.969	10.5
421.751	9.5
422.532	13.5
423.313	10.5
424.095	13.5
424.876	14.5
425.657	12.5
426.438	14.5
427.219	10.5
428	13.5
428.78	14.5
429.561	13.5
430.342	14.5
431.122	13.5
431.903	14.5
432.683	14.5
433.464	17.5
434.244	19.5
435.024	14.5
435.804	14.5
436.584	13.5
437.364	18.5
438.144	21.5
438.924	22.5
439.704	22.5
440.483	21.5
441.263	25.5
442.042	26.5
442.822	27.5
443.601	28.5
444.38	32.5
445.16	34.5
445.939	33.5
446.718	37.5
447.497	40.5
448.276	46.5
449.054	49.5
449.833	47.5
450.612	56.5
451.391	59.5
452.169	69.5
452.948	70.5
453.726	79.5
454.504	83.5
455.282	97.5
456.061	102.5
456.839	110.5
457.617	129.5
458.395	145.5
459.172	154.5
459.95	171.5
460.728	197.5
461.506	210.5
462.283	240.5
463.061	270.5
463.838	305.5
464.615	334.5
465.393	378.5
466.17	417.5
466.947	463.5
467.724	522.5
468.501	565.5
469.278	635.5
470.055	702.5
470.831	789.5
471.608	875.5
472.385	955.5
473.161	1071.5
473.938	1181.5
474.714	1321.5
475.49	1467.5
476.266	1596.5
477.043	1759.5
477.819	1945.5
478.595	2151.5
479.371	2359.5
480.146	2571.5
480.922	2859.5
481.698	3118.5
482.473	3450.5
483.249	3757.5
484.024	4125.5
484.8	4532.5
485.575	4977.5
486.35	5426.5
487.126	5971.5
487.901	6519.5
488.676	7110.5
489.451	7758.5
490.225	8485.5
491	9277.5
491.775	10118.5
492.55	10987.5
493.324	11863.5
494.099	12743.5
494.873	13766.5
495.647	14857.5
496.422	15916.5
497.196	17021.5
497.97	18211.5
498.744	19320.5
499.518	20431.5
500.292	21558.5
501.066	22608.5
501.839	23590.5
502.613	24509.5
503.387	25339.5
504.16	25974.5
504.934	26278.5
505.707	26591.5
506.48	26740.5
507.253	26747.5
508.027	26598.5
508.8	26330.5
509.573	25998.5
510.346	25546.5
511.118	24776.5
511.891	24089.5
512.664	23342.5
513.437	22498.5
514.209	21608.5
514.982	20790.5
515.754	19819.5
516.526	18993.5
517.298	18197.5
518.071	17396.5
518.843	16725.5
519.615	16147.5
520.387	15489.5
521.159	14858.5
521.93	14251.5
522.702	13715.5
523.474	13150.5
524.245	12591.5
525.017	12058.5
525.788	11640.5
526.56	11088.5
527.331	10580.5
528.102	10080.5
528.873	9616.5
529.644	9178.5
530.415	8756.5
531.186	8319.5
531.957	7861.5
532.728	7498.5
533.498	7112.5
534.269	6728.5
535.039	6335.5
535.81	6026.5
536.58	5634.5
537.351	5305.5
538.121	5031.5
538.891	4808.5
539.661	4511.5
540.431	4279.5
541.201	4020.5
541.971	3833.5
542.741	3616.5
543.51	3446.5
544.28	3291.5
545.05	3100.5
545.819	2965.5
546.588	2830.5
547.358	2688.5
548.127	2568.5
548.896	2413.5
549.665	2279.5
550.434	2175.5
551.203	2052.5
551.972	1940.5
552.741	1845.5
553.51	1737.5
554.278	1652.5
555.047	1552.5
555.815	1478.5
556.584	1402.5
557.352	1313.5
558.121	1240.5
558.889	1164.5
559.657	1103.5
560.425	1049.5
561.193	979.5
561.961	932.5
562.729	883.5
563.496	837.5
564.264	791.5
565.032	741.5
565.799	702.5
566.567	668.5
567.334	625.5
568.101	592.5
568.869	559.5
569.636	521.5
570.403	496.5
571.17	466.5
571.937	437.5
572.704	418.5
573.471	394.5
574.237	368.5
575.004	352.5
575.771	332.5
576.537	304.5
577.303	292.5
578.07	280.5
578.836	263.5
579.602	241.5
580.368	231.5
581.134	218.5
581.9	204.5
582.666	193.5
583.432	191.5
584.198	175.5
584.964	164.5
585.729	156.5
586.495	150.5
587.26	142.5
588.025	134.5
588.791	126.5
589.556	122.5
590.321	115.5
591.086	107.5
591.851	103.5
592.616	102.5
593.381	92.5
594.146	86.5
594.911	83.5
595.675	81.5
596.44	76.5
597.204	72.5
597.969	73.5
598.733	68.5
599.497	66.5
600.261	58.5
601.025	62.5
601.79	58.5
602.553	55.5
603.317	52.5
604.081	48.5
604.845	45.5
605.609	46.5
606.372	41.5
607.136	42.5
607.899	40.5
608.662	38.5
609.426	37.5
610.189	38.5
610.952	32.5
611.715	34.5
612.478	33.5
613.241	29.5
614.004	29.5
614.767	26.5
615.529	28.5
616.292	26.5
617.055	26.5
617.817	23.5
618.579	24.5
619.342	25.5
620.104	20.5
620.866	21.5
621.628	22.5
622.39	19.5
623.152	22.5
623.914	17.5
624.676	18.5
625.438	17.5
626.199	17.5
626.961	16.5
627.722	16.5
628.484	15.5
629.245	12.5
630.006	15.5
630.768	14.5
631.529	15.5
632.29	15.5
633.051	12.5
633.812	13.5
634.573	11.5
635.333	12.5
636.094	12.5
636.855	11.5
637.615	10.5
638.376	10.5
639.136	9.5
639.896	10.5
640.657	8.5
641.417	9.5
642.177	10.5
642.937	9.5
643.697	5.5
644.457	10.5
645.216	7.5
645.976	8.5
646.736	9.5
647.495	10.5
648.255	10.5
649.014	7.5
649.774	7.5
650.533	8.5
651.292	7.5
652.051	10.5
652.81	7.5
653.569	8.5
654.328	5.5
655.087	8.5
655.846	5.5
656.604	7.5
657.363	9.5
658.121	6.5
658.88	8.5
659.638	7.5
660.397	2.5
661.155	6.5
661.913	5.5
662.671	6.5
663.429	4.5
664.187	7.5
664.945	3.5
665.703	5.5
666.46	4.5
667.218	6.5
667.976	3.5
668.733	5.5
669.49	7.5
670.248	6.5
671.005	5.5
671.762	1.5
672.519	5.5
673.276	6.5
674.033	5.5
674.79	5.5
675.547	5.5
676.304	4.5
677.06	5.5
677.817	4.5
678.574	8.5
679.33	5.5
680.086	2.5
680.843	5.5
681.599	5.5
682.355	8.5
683.111	4.5
683.867	2.5
684.623	5.5
685.379	4.5
686.135	3.5
686.89	3.5
687.646	5.5
688.402	5.5
689.157	5.5
689.912	4.5
690.668	4.5
691.423	4.5
692.178	6.5
692.933	5.5
693.688	0.5
694.443	3.5
695.198	3.5
695.953	5.5
696.708	1.5
697.462	5.5
698.217	2.5
698.972	4.5
699.726	2.5
700.48	3.5
701.235	3.5
701.989	5.5
702.743	5.5
703.497	8.5
704.251	2.5
705.005	2.5
705.759	4.5
706.513	4.5
707.266	4.5
708.02	4.5
708.774	0.5
709.527	5.5
710.28	2.5
711.034	5.5
711.787	1.5
712.54	3.5
713.293	2.5
714.046	4.5
714.799	4.5
715.552	4.5
716.305	2.5
717.058	3.5
717.81	3.5
718.563	1.5
719.315	4.5
720.068	3.5
720.82	3.5
721.573	4.5
722.325	7.5
723.077	5.5
723.829	3.5
724.581	3.5
725.333	6.5
726.085	5.5
726.836	4.5
727.588	3.5
728.34	5.5
729.091	5.5
729.843	3.5
730.594	5.5
731.346	3.5
732.097	5.5
732.848	5.5
733.599	4.5
734.35	3.5
735.101	4.5
735.852	4.5
736.603	6.5
737.354	3.5
738.104	3.5
738.855	3.5
739.605	5.5
740.356	2.5
741.106	6.5
741.856	5.5
742.607	4.5
743.357	6.5
744.107	6.5
744.857	5.5
745.607	4.5
746.357	4.5
747.106	7.5
747.856	2.5
748.606	5.5
749.355	5.5
750.105	6.5
750.854	5.5
751.603	5.5
752.353	6.5
753.102	7.5
753.851	7.5
754.6	5.5
755.349	6.5
756.098	4.5
756.847	6.5
757.595	6.5
758.344	8.5
759.093	6.5
759.841	4.5
760.589	7.5
761.338	6.5
762.086	7.5
762.834	7.5
763.582	7.5
764.331	9.5
765.079	7.5
765.826	7.5
766.574	7.5
767.322	7.5
768.07	9.5
768.817	9.5
769.565	10.5
770.312	6.5
771.06	5.5
771.807	8.5
772.554	7.5
773.302	7.5
774.049	9.5
774.796	9.5
775.543	10.5
776.29	6.5
777.036	8.5
777.783	7.5
778.53	9.5
779.276	8.5
780.023	10.5
780.769	11.5
781.516	8.5
782.262	7.5
783.008	8.5
783.754	8.5
784.5	9.5
785.246	8.5
785.992	9.5
786.738	7.5
787.484	9.5
788.23	8.5
788.975	8.5
789.721	8.5
790.466	7.5
791.212	9.5
791.957	8.5
792.702	9.5
793.447	7.5
794.193	9.5
794.938	8.5
795.683	8.5
796.427	8.5
797.172	7.5
797.917	9.5
798.662	7.5
799.406	8.5
800.151	7.5
800.895	6.5
801.64	6.5
802.384	7.5
803.128	7.5
803.872	7.5
804.616	7.5
805.36	6.5
806.104	5.5
806.848	5.5
807.592	7.5
808.336	6.5
809.079	7.5
809.823	5.5
810.566	8.5
811.31	4.5
812.053	7.5
812.796	8.5
813.539	6.5
814.283	3.5
815.026	4.5
815.769	6.5
816.511	6.5
817.254	5.5
817.997	5.5
818.74	5.5
819.482	4.5
820.225	4.5
820.967	5.5
821.71	4.5
822.452	3.5
823.194	5.5
823.936	5.5
824.678	7.5
825.42	4.5
826.162	4.5
826.904	3.5
827.646	4.5
828.388	5.5
829.129	7.5
829.871	3.5
830.612	3.5
831.354	5.5
832.095	3.5
832.836	3.5
833.577	3.5
834.319	4.5
835.06	4.5
835.801	2.5
836.542	2.5
837.282	2.5
838.023	3.5
838.764	4.5
839.504	4.5
840.245	4.5
840.985	2.5
841.726	5.5
842.466	5.5
843.206	2.5
843.946	4.5
844.687	4.5
845.427	4.5
846.166	2.5
846.906	3.5
847.646	4.5
848.386	3.5
849.125	5.5
849.865	2.5
850.605	4.5
851.344	4.5
852.083	3.5
852.823	2.5
853.562	5.5
854.301	2.5
855.04	2.5
855.779	3.5
856.518	4.5
857.257	1.5
857.995	1.5
858.734	1.5
859.473	3.5
860.211	0.5
860.95	4.5
861.688	1.5
862.426	3.5
863.165	2.5
863.903	1.5
864.641	3.5
865.379	3.5
866.117	-0.5
866.855	2.5
867.593	1.5
868.33	2.5
869.068	3.5
869.806	-0.5
870.543	1.5
871.28	1.5
872.018	3.5
872.755	2.5
873.492	2.5
874.229	1.5
874.967	1.5
875.703	2.5
876.44	2.5
877.177	4.5
877.914	1.5
878.651	-0.5
879.387	3.5
880.124	0.5
880.86	2.5
881.597	1.5
882.333	2.5
883.069	4.5
883.806	2.5
884.542	2.5
885.278	0.5
886.014	2.5
886.749	4.5
887.485	1.5
888.221	0.5
888.957	0.5
889.692	1.5
890.428	1.5
891.163	2.5
891.899	2.5
892.634	2.5
893.369	2.5
894.104	1.5
894.839	1.5
895.574	2.5
896.309	2.5
897.044	0.5
897.779	1.5
898.514	1.5
899.248	0.5
899.983	1.5
900.717	-0.5
901.452	0.5
902.186	0.5
902.92	2.5
903.654	1.5
904.389	0.5
905.123	1.5
905.857	-0.5
906.59	2.5
907.324	3.5
908.058	2.5
908.792	1.5
909.525	-0.5
910.259	0.5
910.992	2.5
911.726	2.5
912.459	-1.5
913.192	0.5
913.925	-0.5
914.658	0.5
915.391	1.5
916.124	0.5
916.857	0.5
917.59	1.5
918.323	2.5
919.055	2.5
919.788	-0.5
920.521	1.5
921.253	0.5
921.985	0.5
922.718	-1.5
923.45	2.5
924.182	0.5
924.914	-0.5
925.646	0.5
926.378	2.5
927.11	0.5
927.841	0.5
928.573	1.5
929.305	3.5
930.036	2.5
930.768	1.5
931.499	1.5
932.23	-1.5
932.962	-0.5
933.693	0.5
934.424	0.5
935.155	0.5
935.886	-1.5
936.617	1.5
937.348	1.5
938.078	3.5
938.809	1.5
939.54	2.5
940.27	0.5
941.001	0.5
941.731	0.5
942.461	-0.5
943.191	2.5
943.922	-1.5
944.652	1.5
945.382	4.5
946.112	-0.5
946.841	2.5
947.571	-1.5
948.301	3.5
949.031	2.5
949.76	-1.5
950.49	2.5
951.219	-0.5
951.948	0.5
952.678	0.5
953.407	-0.5
954.136	0.5
954.865	1.5
955.594	0.5
956.323	1.5
957.052	1.5
957.78	0.5
958.509	1.5
959.238	0.5
959.966	0.5
960.695	-0.5
961.423	-0.5
962.151	1.5
962.88	2.5
963.608	4.5
964.336	1.5
965.064	0.5
965.792	-0.5
966.52	0.5
967.247	0.5
967.975	0.5
968.703	1.5
969.43	0.5
970.158	-0.5
970.885	0.5
971.613	1.5
972.34	1.5
973.067	0.5
973.794	1.5
974.521	1.5
975.248	1.5
975.975	0.5
976.702	-1.5
977.429	2.5
978.156	1.5
978.882	-0.5
979.609	-0.5
980.335	1.5
981.062	1.5
981.788	2.5
982.514	1.5
983.24	0.5
983.967	0.5
984.693	0.5
985.419	0.5
986.144	1.5
986.87	1.5
987.596	0.5
988.322	1.5
989.047	-0.5
989.773	-0.5
990.498	-1.5
991.224	1.5
991.949	0.5
992.674	1.5
993.399	2.5
994.124	0.5
994.849	-0.5
995.574	-0.5
996.299	0.5
997.024	0.5
997.749	0.5
998.473	-1.5
999.198	-1.5
999.922	1.5
1000.647	-0.5
1001.371	5.5
1002.095	-1.5
1002.82	-1.5
1003.544	-1.5
1004.268	2.5
1004.992	1.5
1005.716	0.5
1006.439	4.5
1007.163	3.5
1007.887	-0.5
1008.611	0.5
1009.334	-1.5
1010.058	0.5
1010.781	3.5
1011.504	2.5
1012.228	0.5
1012.951	1.5
1013.674	-0.5
1014.397	-1.5
1015.12	-0.5
