节点500_285_QEPB04081__667__15-06-38-990.txt的数据

Date: Wed Nov 12 15:06:38 CST 2025
User: PC
Spectrometer: QEPB0408
触发模式: 0
积分时间 (秒): 1.000000E-2
Scans to average: 1
启用暗噪声校正: true
启用非线性校正: false
滑动平均宽度: 0
X轴模式: Wavelengths
Number of Pixels in Spectrum: 1044
>>>>>Begin Spectral Data<<<<<
220.843	2.25
221.644	1.25
222.444	3.25
223.244	2.25
224.045	4.25
224.845	1.25
225.645	2.25
226.445	2.25
227.245	2.25
228.045	4.25
228.845	2.25
229.645	2.25
230.444	2.25
231.244	1.25
232.043	2.25
232.843	2.25
233.642	1.25
234.442	5.25
235.241	4.25
236.04	5.25
236.839	4.25
237.638	3.25
238.437	1.25
239.236	2.25
240.035	4.25
240.833	6.25
241.632	3.25
242.43	5.25
243.229	5.25
244.027	4.25
244.826	6.25
245.624	6.25
246.422	6.25
247.22	4.25
248.018	5.25
248.816	7.25
249.614	5.25
250.412	6.25
251.21	8.25
252.007	4.25
252.805	6.25
253.602	6.25
254.4	7.25
255.197	6.25
255.994	5.25
256.791	9.25
257.589	7.25
258.386	9.25
259.183	9.25
259.979	9.25
260.776	11.25
261.573	10.25
262.37	9.25
263.166	8.25
263.963	13.25
264.759	10.25
265.556	11.25
266.352	11.25
267.148	12.25
267.944	13.25
268.74	12.25
269.536	14.25
270.332	13.25
271.128	16.25
271.924	13.25
272.719	14.25
273.515	15.25
274.311	15.25
275.106	16.25
275.901	19.25
276.697	16.25
277.492	14.25
278.287	16.25
279.082	16.25
279.877	17.25
280.672	17.25
281.467	16.25
282.262	14.25
283.056	18.25
283.851	14.25
284.646	17.25
285.44	17.25
286.234	17.25
287.029	18.25
287.823	19.25
288.617	17.25
289.411	19.25
290.205	14.25
290.999	18.25
291.793	16.25
292.587	17.25
293.381	17.25
294.174	20.25
294.968	17.25
295.761	18.25
296.555	15.25
297.348	13.25
298.141	13.25
298.935	18.25
299.728	13.25
300.521	16.25
301.314	14.25
302.107	13.25
302.899	14.25
303.692	11.25
304.485	13.25
305.277	14.25
306.07	13.25
306.862	12.25
307.655	13.25
308.447	12.25
309.239	12.25
310.031	10.25
310.823	9.25
311.615	10.25
312.407	8.25
313.199	13.25
313.991	11.25
314.783	8.25
315.574	8.25
316.366	10.25
317.157	8.25
317.949	9.25
318.74	9.25
319.531	9.25
320.322	7.25
321.113	7.25
321.904	8.25
322.695	8.25
323.486	7.25
324.277	8.25
325.068	8.25
325.858	7.25
326.649	5.25
327.439	9.25
328.23	6.25
329.02	8.25
329.81	5.25
330.6	8.25
331.391	5.25
332.181	6.25
332.971	7.25
333.76	7.25
334.55	8.25
335.34	7.25
336.13	7.25
336.919	8.25
337.709	8.25
338.498	9.25
339.287	9.25
340.077	8.25
340.866	6.25
341.655	7.25
342.444	6.25
343.233	8.25
344.022	7.25
344.811	7.25
345.6	6.25
346.388	8.25
347.177	6.25
347.965	8.25
348.754	5.25
349.542	7.25
350.33	5.25
351.119	5.25
351.907	5.25
352.695	9.25
353.483	4.25
354.271	6.25
355.059	5.25
355.846	5.25
356.634	6.25
357.422	6.25
358.209	7.25
358.997	4.25
359.784	3.25
360.571	6.25
361.359	6.25
362.146	6.25
362.933	4.25
363.72	7.25
364.507	5.25
365.294	6.25
366.081	6.25
366.867	4.25
367.654	5.25
368.44	5.25
369.227	8.25
370.013	4.25
370.8	6.25
371.586	4.25
372.372	5.25
373.158	4.25
373.944	5.25
374.73	5.25
375.516	8.25
376.302	3.25
377.088	6.25
377.873	5.25
378.659	5.25
379.445	6.25
380.23	4.25
381.015	6.25
381.801	6.25
382.586	6.25
383.371	3.25
384.156	6.25
384.941	5.25
385.726	6.25
386.511	4.25
387.296	6.25
388.08	6.25
388.865	6.25
389.649	5.25
390.434	7.25
391.218	5.25
392.003	6.25
392.787	5.25
393.571	7.25
394.355	7.25
395.139	7.25
395.923	4.25
396.707	8.25
397.491	5.25
398.274	8.25
399.058	5.25
399.842	6.25
400.625	6.25
401.408	7.25
402.192	7.25
402.975	7.25
403.758	8.25
404.541	6.25
405.324	9.25
406.107	9.25
406.89	8.25
407.673	9.25
408.456	8.25
409.238	10.25
410.021	8.25
410.803	8.25
411.586	10.25
412.368	7.25
413.151	8.25
413.933	7.25
414.715	10.25
415.497	7.25
416.279	11.25
417.061	10.25
417.843	10.25
418.624	8.25
419.406	9.25
420.188	10.25
420.969	8.25
421.751	12.25
422.532	9.25
423.313	12.25
424.095	13.25
424.876	11.25
425.657	14.25
426.438	9.25
427.219	12.25
428	12.25
428.78	9.25
429.561	17.25
430.342	14.25
431.122	12.25
431.903	14.25
432.683	14.25
433.464	16.25
434.244	17.25
435.024	17.25
435.804	18.25
436.584	20.25
437.364	20.25
438.144	17.25
438.924	23.25
439.704	21.25
440.483	23.25
441.263	22.25
442.042	26.25
442.822	28.25
443.601	30.25
444.38	31.25
445.16	33.25
445.939	34.25
446.718	37.25
447.497	40.25
448.276	40.25
449.054	47.25
449.833	53.25
450.612	53.25
451.391	62.25
452.169	72.25
452.948	75.25
453.726	79.25
454.504	85.25
455.282	101.25
456.061	111.25
456.839	121.25
457.617	137.25
458.395	152.25
459.172	165.25
459.95	186.25
460.728	203.25
461.506	228.25
462.283	251.25
463.061	282.25
463.838	318.25
464.615	352.25
465.393	389.25
466.17	433.25
466.947	475.25
467.724	533.25
468.501	596.25
469.278	658.25
470.055	741.25
470.831	798.25
471.608	894.25
472.385	982.25
473.161	1086.25
473.938	1191.25
474.714	1339.25
475.49	1465.25
476.266	1604.25
477.043	1760.25
477.819	1941.25
478.595	2133.25
479.371	2336.25
480.146	2560.25
480.922	2800.25
481.698	3086.25
482.473	3390.25
483.249	3704.25
484.024	4014.25
484.8	4405.25
485.575	4824.25
486.35	5248.25
487.126	5731.25
487.901	6248.25
488.676	6812.25
489.451	7402.25
490.225	8123.25
491	8759.25
491.775	9582.25
492.55	10379.25
493.324	11215.25
494.099	12091.25
494.873	12944.25
495.647	13916.25
496.422	14942.25
497.196	16005.25
497.97	17046.25
498.744	18174.25
499.518	19170.25
500.292	20267.25
501.066	21280.25
501.839	22259.25
502.613	23090.25
503.387	23993.25
504.16	24626.25
504.934	25104.25
505.707	25484.25
506.48	25672.25
507.253	25730.25
508.027	25743.25
508.8	25629.25
509.573	25311.25
510.346	24966.25
511.118	24371.25
511.891	23774.25
512.664	23087.25
513.437	22419.25
514.209	21518.25
514.982	20821.25
515.754	19908.25
516.526	19087.25
517.298	18312.25
518.071	17560.25
518.843	16924.25
519.615	16256.25
520.387	15610.25
521.159	14988.25
521.93	14387.25
522.702	13831.25
523.474	13262.25
524.245	12668.25
525.017	12135.25
525.788	11707.25
526.56	11147.25
527.331	10655.25
528.102	10201.25
528.873	9776.25
529.644	9291.25
530.415	8904.25
531.186	8490.25
531.957	8062.25
532.728	7639.25
533.498	7274.25
534.269	6884.25
535.039	6506.25
535.81	6143.25
536.58	5842.25
537.351	5476.25
538.121	5182.25
538.891	4905.25
539.661	4634.25
540.431	4400.25
541.201	4152.25
541.971	3932.25
542.741	3727.25
543.51	3549.25
544.28	3372.25
545.05	3203.25
545.819	3036.25
546.588	2897.25
547.358	2758.25
548.127	2636.25
548.896	2499.25
549.665	2360.25
550.434	2234.25
551.203	2114.25
551.972	2008.25
552.741	1914.25
553.51	1801.25
554.278	1709.25
555.047	1615.25
555.815	1519.25
556.584	1427.25
557.352	1349.25
558.121	1296.25
558.889	1209.25
559.657	1145.25
560.425	1077.25
561.193	1029.25
561.961	960.25
562.729	912.25
563.496	865.25
564.264	811.25
565.032	758.25
565.799	727.25
566.567	691.25
567.334	641.25
568.101	626.25
568.869	575.25
569.636	547.25
570.403	516.25
571.17	489.25
571.937	456.25
572.704	430.25
573.471	406.25
574.237	386.25
575.004	361.25
575.771	342.25
576.537	325.25
577.303	299.25
578.07	290.25
578.836	270.25
579.602	254.25
580.368	238.25
581.134	230.25
581.9	218.25
582.666	207.25
583.432	193.25
584.198	181.25
584.964	175.25
585.729	168.25
586.495	163.25
587.26	149.25
588.025	143.25
588.791	135.25
589.556	126.25
590.321	121.25
591.086	108.25
591.851	112.25
592.616	101.25
593.381	98.25
594.146	92.25
594.911	86.25
595.675	87.25
596.44	82.25
597.204	77.25
597.969	75.25
598.733	68.25
599.497	69.25
600.261	66.25
601.025	58.25
601.79	57.25
602.553	53.25
603.317	57.25
604.081	50.25
604.845	47.25
605.609	47.25
606.372	47.25
607.136	42.25
607.899	40.25
608.662	40.25
609.426	41.25
610.189	36.25
610.952	34.25
611.715	35.25
612.478	33.25
613.241	31.25
614.004	29.25
614.767	29.25
615.529	28.25
616.292	27.25
617.055	24.25
617.817	24.25
618.579	21.25
619.342	24.25
620.104	23.25
620.866	23.25
621.628	23.25
622.39	20.25
623.152	19.25
623.914	19.25
624.676	18.25
625.438	20.25
626.199	16.25
626.961	16.25
627.722	13.25
628.484	16.25
629.245	13.25
630.006	13.25
630.768	16.25
631.529	13.25
632.29	11.25
633.051	14.25
633.812	12.25
634.573	10.25
635.333	10.25
636.094	14.25
636.855	12.25
637.615	10.25
638.376	13.25
639.136	10.25
639.896	12.25
640.657	11.25
641.417	10.25
642.177	9.25
642.937	9.25
643.697	9.25
644.457	9.25
645.216	7.25
645.976	9.25
646.736	6.25
647.495	6.25
648.255	8.25
649.014	8.25
649.774	9.25
650.533	9.25
651.292	8.25
652.051	7.25
652.81	6.25
653.569	9.25
654.328	6.25
655.087	10.25
655.846	7.25
656.604	7.25
657.363	8.25
658.121	5.25
658.88	6.25
659.638	6.25
660.397	8.25
661.155	6.25
661.913	7.25
662.671	8.25
663.429	3.25
664.187	6.25
664.945	6.25
665.703	3.25
666.46	4.25
667.218	5.25
667.976	5.25
668.733	5.25
669.49	7.25
670.248	5.25
671.005	5.25
671.762	5.25
672.519	4.25
673.276	5.25
674.033	2.25
674.79	4.25
675.547	5.25
676.304	4.25
677.06	4.25
677.817	3.25
678.574	4.25
679.33	4.25
680.086	3.25
680.843	3.25
681.599	2.25
682.355	7.25
683.111	4.25
683.867	4.25
684.623	1.25
685.379	5.25
686.135	4.25
686.89	2.25
687.646	3.25
688.402	4.25
689.157	3.25
689.912	3.25
690.668	1.25
691.423	6.25
692.178	2.25
692.933	4.25
693.688	3.25
694.443	4.25
695.198	4.25
695.953	5.25
696.708	3.25
697.462	4.25
698.217	4.25
698.972	4.25
699.726	2.25
700.48	2.25
701.235	4.25
701.989	3.25
702.743	6.25
703.497	4.25
704.251	3.25
705.005	2.25
705.759	3.25
706.513	4.25
707.266	3.25
708.02	5.25
708.774	5.25
709.527	4.25
710.28	2.25
711.034	2.25
711.787	3.25
712.54	2.25
713.293	2.25
714.046	5.25
714.799	4.25
715.552	2.25
716.305	5.25
717.058	3.25
717.81	3.25
718.563	5.25
719.315	4.25
720.068	4.25
720.82	4.25
721.573	5.25
722.325	5.25
723.077	5.25
723.829	3.25
724.581	3.25
725.333	3.25
726.085	3.25
726.836	5.25
727.588	4.25
728.34	5.25
729.091	6.25
729.843	3.25
730.594	5.25
731.346	2.25
732.097	4.25
732.848	2.25
733.599	5.25
734.35	5.25
735.101	3.25
735.852	5.25
736.603	2.25
737.354	6.25
738.104	4.25
738.855	4.25
739.605	1.25
740.356	6.25
741.106	6.25
741.856	3.25
742.607	4.25
743.357	3.25
744.107	5.25
744.857	5.25
745.607	5.25
746.357	4.25
747.106	5.25
747.856	5.25
748.606	5.25
749.355	5.25
750.105	3.25
750.854	5.25
751.603	6.25
752.353	8.25
753.102	7.25
753.851	4.25
754.6	6.25
755.349	6.25
756.098	5.25
756.847	6.25
757.595	6.25
758.344	7.25
759.093	4.25
759.841	6.25
760.589	6.25
761.338	7.25
762.086	6.25
762.834	8.25
763.582	5.25
764.331	6.25
765.079	8.25
765.826	5.25
766.574	7.25
767.322	7.25
768.07	7.25
768.817	7.25
769.565	7.25
770.312	7.25
771.06	8.25
771.807	7.25
772.554	8.25
773.302	9.25
774.049	9.25
774.796	9.25
775.543	7.25
776.29	8.25
777.036	6.25
777.783	12.25
778.53	7.25
779.276	8.25
780.023	10.25
780.769	9.25
781.516	6.25
782.262	5.25
783.008	10.25
783.754	8.25
784.5	8.25
785.246	9.25
785.992	7.25
786.738	8.25
787.484	7.25
788.23	6.25
788.975	8.25
789.721	8.25
790.466	8.25
791.212	7.25
791.957	7.25
792.702	7.25
793.447	6.25
794.193	7.25
794.938	7.25
795.683	9.25
796.427	7.25
797.172	9.25
797.917	7.25
798.662	7.25
799.406	8.25
800.151	8.25
800.895	10.25
801.64	4.25
802.384	8.25
803.128	8.25
803.872	6.25
804.616	7.25
805.36	4.25
806.104	8.25
806.848	7.25
807.592	4.25
808.336	9.25
809.079	5.25
809.823	6.25
810.566	2.25
811.31	6.25
812.053	4.25
812.796	5.25
813.539	6.25
814.283	6.25
815.026	7.25
815.769	4.25
816.511	6.25
817.254	7.25
817.997	4.25
818.74	4.25
819.482	3.25
820.225	7.25
820.967	2.25
821.71	2.25
822.452	5.25
823.194	1.25
823.936	4.25
824.678	4.25
825.42	4.25
826.162	6.25
826.904	5.25
827.646	2.25
828.388	2.25
829.129	6.25
829.871	3.25
830.612	4.25
831.354	4.25
832.095	4.25
832.836	4.25
833.577	5.25
834.319	5.25
835.06	3.25
835.801	7.25
836.542	5.25
837.282	2.25
838.023	3.25
838.764	2.25
839.504	4.25
840.245	5.25
840.985	5.25
841.726	3.25
842.466	3.25
843.206	4.25
843.946	3.25
844.687	4.25
845.427	2.25
846.166	4.25
846.906	3.25
847.646	2.25
848.386	3.25
849.125	2.25
849.865	3.25
850.605	4.25
851.344	2.25
852.083	3.25
852.823	3.25
853.562	5.25
854.301	3.25
855.04	4.25
855.779	2.25
856.518	4.25
857.257	2.25
857.995	3.25
858.734	0.25
859.473	4.25
860.211	0.25
860.95	2.25
861.688	2.25
862.426	3.25
863.165	0.25
863.903	3.25
864.641	1.25
865.379	1.25
866.117	2.25
866.855	2.25
867.593	0.25
868.33	1.25
869.068	1.25
869.806	3.25
870.543	2.25
871.28	1.25
872.018	3.25
872.755	4.25
873.492	1.25
874.229	2.25
874.967	2.25
875.703	1.25
876.44	1.25
877.177	2.25
877.914	1.25
878.651	1.25
879.387	1.25
880.124	2.25
880.86	0.25
881.597	3.25
882.333	2.25
883.069	2.25
883.806	0.25
884.542	-0.75
885.278	3.25
886.014	1.25
886.749	2.25
887.485	1.25
888.221	-0.75
888.957	3.25
889.692	2.25
890.428	0.25
891.163	0.25
891.899	3.25
892.634	0.25
893.369	2.25
894.104	0.25
894.839	0.25
895.574	-0.75
896.309	1.25
897.044	1.25
897.779	1.25
898.514	1.25
899.248	2.25
899.983	2.25
900.717	2.25
901.452	2.25
902.186	1.25
902.92	0.25
903.654	1.25
904.389	1.25
905.123	2.25
905.857	1.25
906.59	0.25
907.324	3.25
908.058	1.25
908.792	-1.75
909.525	2.25
910.259	0.25
910.992	2.25
911.726	1.25
912.459	-0.75
913.192	0.25
913.925	1.25
914.658	0.25
915.391	0.25
916.124	1.25
916.857	0.25
917.59	0.25
918.323	2.25
919.055	-0.75
919.788	1.25
920.521	1.25
921.253	1.25
921.985	1.25
922.718	-0.75
923.45	-2.75
924.182	0.25
924.914	0.25
925.646	1.25
926.378	1.25
927.11	0.25
927.841	0.25
928.573	-0.75
929.305	-0.75
930.036	1.25
930.768	0.25
931.499	2.25
932.23	2.25
932.962	2.25
933.693	1.25
934.424	0.25
935.155	0.25
935.886	1.25
936.617	1.25
937.348	1.25
938.078	0.25
938.809	1.25
939.54	1.25
940.27	0.25
941.001	-1.75
941.731	-0.75
942.461	0.25
943.191	-0.75
943.922	-0.75
944.652	0.25
945.382	1.25
946.112	-0.75
946.841	-0.75
947.571	0.25
948.301	-0.75
949.031	0.25
949.76	1.25
950.49	-1.75
951.219	0.25
951.948	1.25
952.678	1.25
953.407	-0.75
954.136	1.25
954.865	1.25
955.594	2.25
956.323	2.25
957.052	0.25
957.78	2.25
958.509	-0.75
959.238	2.25
959.966	0.25
960.695	-1.75
961.423	0.25
962.151	1.25
962.88	2.25
963.608	0.25
964.336	2.25
965.064	1.25
965.792	0.25
966.52	0.25
967.247	0.25
967.975	2.25
968.703	1.25
969.43	2.25
970.158	-0.75
970.885	-0.75
971.613	1.25
972.34	0.25
973.067	3.25
973.794	0.25
974.521	1.25
975.248	1.25
975.975	0.25
976.702	2.25
977.429	0.25
978.156	0.25
978.882	1.25
979.609	2.25
980.335	2.25
981.062	2.25
981.788	2.25
982.514	-0.75
983.24	1.25
983.967	1.25
984.693	-0.75
985.419	0.25
986.144	0.25
986.87	1.25
987.596	-0.75
988.322	0.25
989.047	1.25
989.773	0.25
990.498	0.25
991.224	-0.75
991.949	-1.75
992.674	0.25
993.399	1.25
994.124	2.25
994.849	-2.75
995.574	0.25
996.299	-0.75
997.024	-0.75
997.749	1.25
998.473	0.25
999.198	1.25
999.922	-2.75
1000.647	1.25
1001.371	3.25
1002.095	-0.75
1002.82	-0.75
1003.544	-2.75
1004.268	2.25
1004.992	-0.75
1005.716	1.25
1006.439	2.25
1007.163	3.25
1007.887	1.25
1008.611	0.25
1009.334	-0.75
1010.058	0.25
1010.781	-1.75
1011.504	0.25
1012.228	0.25
1012.951	0.25
1013.674	-0.75
1014.397	0.25
1015.12	1.25
