节点500_285_QEPB04081__439__15-02-51-548.txt的数据

Date: Wed Nov 12 15:02:51 CST 2025
User: PC
Spectrometer: QEPB0408
触发模式: 0
积分时间 (秒): 1.000000E-2
Scans to average: 1
启用暗噪声校正: true
启用非线性校正: false
滑动平均宽度: 0
X轴模式: Wavelengths
Number of Pixels in Spectrum: 1044
>>>>>Begin Spectral Data<<<<<
220.843	2.38
221.644	2.38
222.444	1.38
223.244	1.38
224.045	0.38
224.845	2.38
225.645	3.38
226.445	0.38
227.245	1.38
228.045	1.38
228.845	3.38
229.645	2.38
230.444	1.38
231.244	1.38
232.043	2.38
232.843	4.38
233.642	1.38
234.442	1.38
235.241	3.38
236.04	2.38
236.839	2.38
237.638	1.38
238.437	4.38
239.236	2.38
240.035	4.38
240.833	4.38
241.632	3.38
242.43	3.38
243.229	4.38
244.027	5.38
244.826	4.38
245.624	7.38
246.422	6.38
247.22	2.38
248.018	6.38
248.816	5.38
249.614	4.38
250.412	6.38
251.21	5.38
252.007	5.38
252.805	7.38
253.602	5.38
254.4	7.38
255.197	6.38
255.994	5.38
256.791	9.38
257.589	8.38
258.386	7.38
259.183	7.38
259.979	8.38
260.776	9.38
261.573	11.38
262.37	10.38
263.166	10.38
263.963	8.38
264.759	11.38
265.556	10.38
266.352	12.38
267.148	14.38
267.944	12.38
268.74	13.38
269.536	11.38
270.332	15.38
271.128	13.38
271.924	15.38
272.719	12.38
273.515	13.38
274.311	16.38
275.106	15.38
275.901	15.38
276.697	16.38
277.492	19.38
278.287	17.38
279.082	19.38
279.877	19.38
280.672	19.38
281.467	20.38
282.262	20.38
283.056	19.38
283.851	17.38
284.646	18.38
285.44	20.38
286.234	16.38
287.029	19.38
287.823	17.38
288.617	17.38
289.411	17.38
290.205	16.38
290.999	14.38
291.793	15.38
292.587	15.38
293.381	17.38
294.174	15.38
294.968	19.38
295.761	15.38
296.555	14.38
297.348	15.38
298.141	13.38
298.935	16.38
299.728	13.38
300.521	16.38
301.314	14.38
302.107	16.38
302.899	12.38
303.692	12.38
304.485	12.38
305.277	14.38
306.07	12.38
306.862	12.38
307.655	13.38
308.447	11.38
309.239	10.38
310.031	11.38
310.823	13.38
311.615	9.38
312.407	9.38
313.199	9.38
313.991	9.38
314.783	8.38
315.574	9.38
316.366	12.38
317.157	10.38
317.949	7.38
318.74	8.38
319.531	6.38
320.322	4.38
321.113	8.38
321.904	9.38
322.695	8.38
323.486	7.38
324.277	6.38
325.068	8.38
325.858	5.38
326.649	7.38
327.439	6.38
328.23	8.38
329.02	6.38
329.81	5.38
330.6	8.38
331.391	7.38
332.181	4.38
332.971	5.38
333.76	4.38
334.55	7.38
335.34	4.38
336.13	7.38
336.919	6.38
337.709	6.38
338.498	4.38
339.287	6.38
340.077	5.38
340.866	5.38
341.655	7.38
342.444	3.38
343.233	3.38
344.022	8.38
344.811	6.38
345.6	5.38
346.388	6.38
347.177	6.38
347.965	5.38
348.754	3.38
349.542	6.38
350.33	6.38
351.119	4.38
351.907	6.38
352.695	5.38
353.483	3.38
354.271	4.38
355.059	7.38
355.846	7.38
356.634	5.38
357.422	5.38
358.209	7.38
358.997	4.38
359.784	6.38
360.571	7.38
361.359	5.38
362.146	5.38
362.933	6.38
363.72	4.38
364.507	5.38
365.294	5.38
366.081	6.38
366.867	5.38
367.654	4.38
368.44	5.38
369.227	3.38
370.013	4.38
370.8	3.38
371.586	5.38
372.372	4.38
373.158	4.38
373.944	4.38
374.73	5.38
375.516	3.38
376.302	5.38
377.088	4.38
377.873	6.38
378.659	4.38
379.445	6.38
380.23	5.38
381.015	6.38
381.801	3.38
382.586	1.38
383.371	6.38
384.156	5.38
384.941	6.38
385.726	5.38
386.511	5.38
387.296	5.38
388.08	4.38
388.865	5.38
389.649	5.38
390.434	5.38
391.218	4.38
392.003	7.38
392.787	6.38
393.571	5.38
394.355	4.38
395.139	8.38
395.923	5.38
396.707	6.38
397.491	2.38
398.274	8.38
399.058	6.38
399.842	7.38
400.625	6.38
401.408	6.38
402.192	5.38
402.975	6.38
403.758	9.38
404.541	5.38
405.324	7.38
406.107	7.38
406.89	7.38
407.673	4.38
408.456	8.38
409.238	8.38
410.021	7.38
410.803	6.38
411.586	9.38
412.368	8.38
413.151	8.38
413.933	8.38
414.715	8.38
415.497	7.38
416.279	7.38
417.061	8.38
417.843	10.38
418.624	8.38
419.406	9.38
420.188	9.38
420.969	10.38
421.751	9.38
422.532	9.38
423.313	9.38
424.095	11.38
424.876	13.38
425.657	10.38
426.438	12.38
427.219	13.38
428	12.38
428.78	12.38
429.561	15.38
430.342	12.38
431.122	12.38
431.903	15.38
432.683	17.38
433.464	16.38
434.244	13.38
435.024	18.38
435.804	17.38
436.584	18.38
437.364	16.38
438.144	19.38
438.924	21.38
439.704	20.38
440.483	23.38
441.263	22.38
442.042	24.38
442.822	25.38
443.601	27.38
444.38	30.38
445.16	32.38
445.939	33.38
446.718	33.38
447.497	38.38
448.276	42.38
449.054	45.38
449.833	48.38
450.612	55.38
451.391	60.38
452.169	65.38
452.948	70.38
453.726	75.38
454.504	83.38
455.282	90.38
456.061	97.38
456.839	111.38
457.617	124.38
458.395	138.38
459.172	157.38
459.95	172.38
460.728	191.38
461.506	206.38
462.283	231.38
463.061	269.38
463.838	295.38
464.615	327.38
465.393	376.38
466.17	404.38
466.947	457.38
467.724	512.38
468.501	561.38
469.278	629.38
470.055	705.38
470.831	779.38
471.608	865.38
472.385	964.38
473.161	1063.38
473.938	1185.38
474.714	1298.38
475.49	1436.38
476.266	1591.38
477.043	1759.38
477.819	1940.38
478.595	2132.38
479.371	2333.38
480.146	2594.38
480.922	2843.38
481.698	3136.38
482.473	3451.38
483.249	3785.38
484.024	4145.38
484.8	4591.38
485.575	5010.38
486.35	5503.38
487.126	5987.38
487.901	6563.38
488.676	7213.38
489.451	7889.38
490.225	8607.38
491	9387.38
491.775	10243.38
492.55	11164.38
493.324	12117.38
494.099	13037.38
494.873	13982.38
495.647	15105.38
496.422	16262.38
497.196	17357.38
497.97	18561.38
498.744	19679.38
499.518	20800.38
500.292	21984.38
501.066	22969.38
501.839	23992.38
502.613	24913.38
503.387	25732.38
504.16	26289.38
504.934	26668.38
505.707	26928.38
506.48	27007.38
507.253	27002.38
508.027	26783.38
508.8	26556.38
509.573	26123.38
510.346	25574.38
511.118	24823.38
511.891	24180.38
512.664	23340.38
513.437	22527.38
514.209	21568.38
514.982	20768.38
515.754	19819.38
516.526	18985.38
517.298	18121.38
518.071	17386.38
518.843	16639.38
519.615	16097.38
520.387	15436.38
521.159	14784.38
521.93	14207.38
522.702	13641.38
523.474	13132.38
524.245	12486.38
525.017	12006.38
525.788	11569.38
526.56	11016.38
527.331	10542.38
528.102	10042.38
528.873	9630.38
529.644	9138.38
530.415	8705.38
531.186	8227.38
531.957	7837.38
532.728	7438.38
533.498	7065.38
534.269	6645.38
535.039	6292.38
535.81	5956.38
536.58	5623.38
537.351	5292.38
538.121	4995.38
538.891	4754.38
539.661	4467.38
540.431	4234.38
541.201	4000.38
541.971	3813.38
542.741	3607.38
543.51	3395.38
544.28	3238.38
545.05	3092.38
545.819	2920.38
546.588	2796.38
547.358	2653.38
548.127	2501.38
548.896	2411.38
549.665	2292.38
550.434	2144.38
551.203	2039.38
551.972	1931.38
552.741	1813.38
553.51	1723.38
554.278	1625.38
555.047	1530.38
555.815	1446.38
556.584	1368.38
557.352	1300.38
558.121	1221.38
558.889	1161.38
559.657	1101.38
560.425	1016.38
561.193	975.38
561.961	916.38
562.729	863.38
563.496	815.38
564.264	776.38
565.032	729.38
565.799	694.38
566.567	660.38
567.334	625.38
568.101	575.38
568.869	554.38
569.636	512.38
570.403	486.38
571.17	462.38
571.937	438.38
572.704	409.38
573.471	379.38
574.237	362.38
575.004	344.38
575.771	326.38
576.537	303.38
577.303	288.38
578.07	273.38
578.836	251.38
579.602	239.38
580.368	224.38
581.134	213.38
581.9	205.38
582.666	194.38
583.432	182.38
584.198	178.38
584.964	165.38
585.729	153.38
586.495	153.38
587.26	140.38
588.025	129.38
588.791	122.38
589.556	116.38
590.321	112.38
591.086	108.38
591.851	99.38
592.616	98.38
593.381	97.38
594.146	87.38
594.911	87.38
595.675	80.38
596.44	75.38
597.204	71.38
597.969	69.38
598.733	65.38
599.497	63.38
600.261	59.38
601.025	57.38
601.79	56.38
602.553	54.38
603.317	51.38
604.081	48.38
604.845	46.38
605.609	46.38
606.372	42.38
607.136	40.38
607.899	40.38
608.662	39.38
609.426	36.38
610.189	32.38
610.952	31.38
611.715	29.38
612.478	27.38
613.241	26.38
614.004	27.38
614.767	27.38
615.529	30.38
616.292	24.38
617.055	26.38
617.817	24.38
618.579	24.38
619.342	24.38
620.104	22.38
620.866	20.38
621.628	20.38
622.39	19.38
623.152	17.38
623.914	18.38
624.676	19.38
625.438	16.38
626.199	16.38
626.961	14.38
627.722	12.38
628.484	15.38
629.245	13.38
630.006	14.38
630.768	12.38
631.529	14.38
632.29	12.38
633.051	13.38
633.812	13.38
634.573	11.38
635.333	12.38
636.094	9.38
636.855	10.38
637.615	11.38
638.376	9.38
639.136	10.38
639.896	8.38
640.657	11.38
641.417	9.38
642.177	10.38
642.937	7.38
643.697	9.38
644.457	6.38
645.216	7.38
645.976	7.38
646.736	9.38
647.495	6.38
648.255	9.38
649.014	6.38
649.774	8.38
650.533	6.38
651.292	8.38
652.051	8.38
652.81	5.38
653.569	10.38
654.328	4.38
655.087	7.38
655.846	7.38
656.604	3.38
657.363	3.38
658.121	5.38
658.88	4.38
659.638	6.38
660.397	7.38
661.155	3.38
661.913	4.38
662.671	6.38
663.429	5.38
664.187	5.38
664.945	3.38
665.703	1.38
666.46	2.38
667.218	4.38
667.976	6.38
668.733	3.38
669.49	4.38
670.248	6.38
671.005	4.38
671.762	4.38
672.519	3.38
673.276	3.38
674.033	2.38
674.79	1.38
675.547	2.38
676.304	1.38
677.06	3.38
677.817	4.38
678.574	3.38
679.33	5.38
680.086	2.38
680.843	3.38
681.599	4.38
682.355	1.38
683.111	2.38
683.867	4.38
684.623	6.38
685.379	2.38
686.135	4.38
686.89	3.38
687.646	5.38
688.402	4.38
689.157	3.38
689.912	3.38
690.668	1.38
691.423	5.38
692.178	2.38
692.933	3.38
693.688	2.38
694.443	3.38
695.198	4.38
695.953	2.38
696.708	3.38
697.462	4.38
698.217	5.38
698.972	4.38
699.726	4.38
700.48	4.38
701.235	2.38
701.989	4.38
702.743	2.38
703.497	3.38
704.251	6.38
705.005	1.38
705.759	2.38
706.513	2.38
707.266	3.38
708.02	3.38
708.774	2.38
709.527	3.38
710.28	5.38
711.034	4.38
711.787	1.38
712.54	4.38
713.293	2.38
714.046	2.38
714.799	3.38
715.552	1.38
716.305	2.38
717.058	5.38
717.81	3.38
718.563	3.38
719.315	4.38
720.068	3.38
720.82	1.38
721.573	0.38
722.325	3.38
723.077	1.38
723.829	1.38
724.581	2.38
725.333	2.38
726.085	4.38
726.836	4.38
727.588	4.38
728.34	5.38
729.091	5.38
729.843	4.38
730.594	5.38
731.346	4.38
732.097	3.38
732.848	2.38
733.599	3.38
734.35	4.38
735.101	2.38
735.852	4.38
736.603	-0.62
737.354	4.38
738.104	5.38
738.855	2.38
739.605	6.38
740.356	1.38
741.106	4.38
741.856	3.38
742.607	2.38
743.357	6.38
744.107	4.38
744.857	6.38
745.607	3.38
746.357	4.38
747.106	3.38
747.856	4.38
748.606	4.38
749.355	4.38
750.105	3.38
750.854	4.38
751.603	5.38
752.353	3.38
753.102	4.38
753.851	4.38
754.6	4.38
755.349	6.38
756.098	4.38
756.847	3.38
757.595	7.38
758.344	5.38
759.093	4.38
759.841	4.38
760.589	5.38
761.338	5.38
762.086	4.38
762.834	7.38
763.582	7.38
764.331	7.38
765.079	6.38
765.826	5.38
766.574	7.38
767.322	7.38
768.07	8.38
768.817	5.38
769.565	7.38
770.312	6.38
771.06	8.38
771.807	8.38
772.554	8.38
773.302	5.38
774.049	8.38
774.796	7.38
775.543	8.38
776.29	8.38
777.036	7.38
777.783	7.38
778.53	10.38
779.276	8.38
780.023	11.38
780.769	7.38
781.516	7.38
782.262	9.38
783.008	4.38
783.754	8.38
784.5	8.38
785.246	5.38
785.992	8.38
786.738	8.38
787.484	7.38
788.23	8.38
788.975	6.38
789.721	9.38
790.466	8.38
791.212	8.38
791.957	6.38
792.702	8.38
793.447	10.38
794.193	9.38
794.938	8.38
795.683	8.38
796.427	5.38
797.172	9.38
797.917	8.38
798.662	8.38
799.406	9.38
800.151	7.38
800.895	7.38
801.64	10.38
802.384	6.38
803.128	7.38
803.872	7.38
804.616	4.38
805.36	6.38
806.104	6.38
806.848	7.38
807.592	5.38
808.336	7.38
809.079	7.38
809.823	5.38
810.566	7.38
811.31	5.38
812.053	4.38
812.796	5.38
813.539	6.38
814.283	5.38
815.026	7.38
815.769	5.38
816.511	2.38
817.254	4.38
817.997	3.38
818.74	4.38
819.482	3.38
820.225	3.38
820.967	3.38
821.71	4.38
822.452	3.38
823.194	5.38
823.936	2.38
824.678	2.38
825.42	2.38
826.162	2.38
826.904	5.38
827.646	4.38
828.388	5.38
829.129	1.38
829.871	5.38
830.612	3.38
831.354	3.38
832.095	4.38
832.836	5.38
833.577	1.38
834.319	2.38
835.06	4.38
835.801	3.38
836.542	3.38
837.282	5.38
838.023	2.38
838.764	3.38
839.504	1.38
840.245	5.38
840.985	3.38
841.726	2.38
842.466	2.38
843.206	1.38
843.946	2.38
844.687	3.38
845.427	4.38
846.166	2.38
846.906	2.38
847.646	4.38
848.386	0.38
849.125	3.38
849.865	4.38
850.605	1.38
851.344	3.38
852.083	2.38
852.823	2.38
853.562	1.38
854.301	3.38
855.04	1.38
855.779	3.38
856.518	2.38
857.257	3.38
857.995	2.38
858.734	1.38
859.473	2.38
860.211	4.38
860.95	1.38
861.688	2.38
862.426	3.38
863.165	1.38
863.903	-0.62
864.641	1.38
865.379	1.38
866.117	1.38
866.855	1.38
867.593	0.38
868.33	3.38
869.068	2.38
869.806	2.38
870.543	-0.62
871.28	2.38
872.018	1.38
872.755	-0.62
873.492	0.38
874.229	0.38
874.967	0.38
875.703	1.38
876.44	1.38
877.177	0.38
877.914	1.38
878.651	0.38
879.387	1.38
880.124	-1.62
880.86	1.38
881.597	1.38
882.333	1.38
883.069	1.38
883.806	-0.62
884.542	0.38
885.278	1.38
886.014	0.38
886.749	1.38
887.485	1.38
888.221	-0.62
888.957	2.38
889.692	0.38
890.428	-1.62
891.163	0.38
891.899	-2.62
892.634	-2.62
893.369	2.38
894.104	-0.62
894.839	1.38
895.574	-2.62
896.309	0.38
897.044	0.38
897.779	-1.62
898.514	0.38
899.248	2.38
899.983	0.38
900.717	0.38
901.452	2.38
902.186	0.38
902.92	0.38
903.654	1.38
904.389	-0.62
905.123	-0.62
905.857	0.38
906.59	-0.62
907.324	0.38
908.058	1.38
908.792	2.38
909.525	1.38
910.259	-0.62
910.992	1.38
911.726	-0.62
912.459	1.38
913.192	-1.62
913.925	0.38
914.658	-0.62
915.391	-0.62
916.124	0.38
916.857	0.38
917.59	-1.62
918.323	-2.62
919.055	-0.62
919.788	-0.62
920.521	-0.62
921.253	0.38
921.985	0.38
922.718	2.38
923.45	-0.62
924.182	-0.62
924.914	0.38
925.646	0.38
926.378	2.38
927.11	1.38
927.841	0.38
928.573	0.38
929.305	1.38
930.036	1.38
930.768	-0.62
931.499	-0.62
932.23	-0.62
932.962	-0.62
933.693	-0.62
934.424	2.38
935.155	-0.62
935.886	0.38
936.617	-1.62
937.348	0.38
938.078	-1.62
938.809	-1.62
939.54	-1.62
940.27	-1.62
941.001	-2.62
941.731	2.38
942.461	0.38
943.191	-1.62
943.922	1.38
944.652	0.38
945.382	-0.62
946.112	-0.62
946.841	0.38
947.571	2.38
948.301	0.38
949.031	0.38
949.76	0.38
950.49	1.38
951.219	1.38
951.948	0.38
952.678	-1.62
953.407	-1.62
954.136	1.38
954.865	-0.62
955.594	1.38
956.323	0.38
957.052	-0.62
957.78	1.38
958.509	-2.62
959.238	-0.62
959.966	-2.62
960.695	-0.62
961.423	-0.62
962.151	0.38
962.88	0.38
963.608	-0.62
964.336	-1.62
965.064	-2.62
965.792	0.38
966.52	1.38
967.247	-0.62
967.975	0.38
968.703	0.38
969.43	1.38
970.158	1.38
970.885	1.38
971.613	-1.62
972.34	0.38
973.067	-2.62
973.794	-1.62
974.521	-0.62
975.248	0.38
975.975	-1.62
976.702	-0.62
977.429	-0.62
978.156	-0.62
978.882	0.38
979.609	1.38
980.335	-0.62
981.062	0.38
981.788	1.38
982.514	-1.62
983.24	1.38
983.967	-0.62
984.693	-1.62
985.419	1.38
986.144	-0.62
986.87	1.38
987.596	-1.62
988.322	0.38
989.047	-1.62
989.773	-2.62
990.498	-0.62
991.224	1.38
991.949	2.38
992.674	-1.62
993.399	0.38
994.124	1.38
994.849	-0.62
995.574	-2.62
996.299	1.38
997.024	0.38
997.749	-2.62
998.473	1.38
999.198	-0.62
999.922	-2.62
1000.647	1.38
1001.371	4.38
1002.095	0.38
1002.82	-2.62
1003.544	-0.62
1004.268	0.38
1004.992	0.38
1005.716	1.38
1006.439	-0.62
1007.163	3.38
1007.887	-0.62
1008.611	0.38
1009.334	2.38
1010.058	0.38
1010.781	1.38
1011.504	0.38
1012.228	0.38
1012.951	-0.62
1013.674	-0.62
1014.397	-1.62
1015.12	1.38
