节点500_285_QEPB04081__846__15-09-37-721.txt的数据

Date: Wed Nov 12 15:09:37 CST 2025
User: PC
Spectrometer: QEPB0408
触发模式: 0
积分时间 (秒): 1.000000E-2
Scans to average: 1
启用暗噪声校正: true
启用非线性校正: false
滑动平均宽度: 0
X轴模式: Wavelengths
Number of Pixels in Spectrum: 1044
>>>>>Begin Spectral Data<<<<<
220.843	0.62
221.644	1.62
222.444	-1.38
223.244	1.62
224.045	1.62
224.845	1.62
225.645	1.62
226.445	1.62
227.245	3.62
228.045	2.62
228.845	0.62
229.645	1.62
230.444	2.62
231.244	4.62
232.043	0.62
232.843	5.62
233.642	2.62
234.442	1.62
235.241	1.62
236.04	0.62
236.839	5.62
237.638	3.62
238.437	3.62
239.236	2.62
240.035	1.62
240.833	3.62
241.632	3.62
242.43	4.62
243.229	3.62
244.027	1.62
244.826	3.62
245.624	4.62
246.422	3.62
247.22	4.62
248.018	4.62
248.816	6.62
249.614	6.62
250.412	7.62
251.21	3.62
252.007	6.62
252.805	3.62
253.602	7.62
254.4	5.62
255.197	3.62
255.994	6.62
256.791	5.62
257.589	8.62
258.386	8.62
259.183	7.62
259.979	7.62
260.776	6.62
261.573	10.62
262.37	10.62
263.166	7.62
263.963	8.62
264.759	9.62
265.556	8.62
266.352	8.62
267.148	11.62
267.944	10.62
268.74	10.62
269.536	13.62
270.332	13.62
271.128	13.62
271.924	12.62
272.719	12.62
273.515	12.62
274.311	12.62
275.106	12.62
275.901	16.62
276.697	15.62
277.492	13.62
278.287	14.62
279.082	15.62
279.877	15.62
280.672	15.62
281.467	14.62
282.262	16.62
283.056	15.62
283.851	16.62
284.646	14.62
285.44	19.62
286.234	16.62
287.029	16.62
287.823	16.62
288.617	20.62
289.411	14.62
290.205	15.62
290.999	16.62
291.793	18.62
292.587	16.62
293.381	14.62
294.174	14.62
294.968	13.62
295.761	12.62
296.555	12.62
297.348	11.62
298.141	13.62
298.935	12.62
299.728	12.62
300.521	16.62
301.314	10.62
302.107	12.62
302.899	12.62
303.692	12.62
304.485	12.62
305.277	11.62
306.07	16.62
306.862	10.62
307.655	13.62
308.447	11.62
309.239	13.62
310.031	11.62
310.823	9.62
311.615	11.62
312.407	9.62
313.199	8.62
313.991	9.62
314.783	7.62
315.574	10.62
316.366	8.62
317.157	11.62
317.949	6.62
318.74	7.62
319.531	5.62
320.322	6.62
321.113	7.62
321.904	6.62
322.695	8.62
323.486	6.62
324.277	4.62
325.068	5.62
325.858	8.62
326.649	2.62
327.439	6.62
328.23	9.62
329.02	4.62
329.81	6.62
330.6	6.62
331.391	3.62
332.181	6.62
332.971	8.62
333.76	3.62
334.55	6.62
335.34	6.62
336.13	4.62
336.919	5.62
337.709	7.62
338.498	5.62
339.287	6.62
340.077	6.62
340.866	5.62
341.655	5.62
342.444	4.62
343.233	4.62
344.022	5.62
344.811	6.62
345.6	4.62
346.388	5.62
347.177	3.62
347.965	3.62
348.754	5.62
349.542	5.62
350.33	5.62
351.119	4.62
351.907	4.62
352.695	4.62
353.483	5.62
354.271	7.62
355.059	5.62
355.846	4.62
356.634	5.62
357.422	4.62
358.209	5.62
358.997	4.62
359.784	4.62
360.571	4.62
361.359	4.62
362.146	4.62
362.933	3.62
363.72	4.62
364.507	2.62
365.294	1.62
366.081	4.62
366.867	4.62
367.654	6.62
368.44	4.62
369.227	2.62
370.013	4.62
370.8	2.62
371.586	6.62
372.372	2.62
373.158	5.62
373.944	6.62
374.73	2.62
375.516	3.62
376.302	2.62
377.088	4.62
377.873	3.62
378.659	4.62
379.445	3.62
380.23	3.62
381.015	4.62
381.801	3.62
382.586	3.62
383.371	6.62
384.156	3.62
384.941	3.62
385.726	3.62
386.511	4.62
387.296	3.62
388.08	7.62
388.865	5.62
389.649	5.62
390.434	4.62
391.218	4.62
392.003	8.62
392.787	1.62
393.571	6.62
394.355	4.62
395.139	4.62
395.923	6.62
396.707	6.62
397.491	4.62
398.274	3.62
399.058	5.62
399.842	4.62
400.625	6.62
401.408	7.62
402.192	4.62
402.975	5.62
403.758	7.62
404.541	5.62
405.324	4.62
406.107	5.62
406.89	8.62
407.673	8.62
408.456	8.62
409.238	7.62
410.021	8.62
410.803	8.62
411.586	6.62
412.368	8.62
413.151	9.62
413.933	8.62
414.715	7.62
415.497	6.62
416.279	7.62
417.061	7.62
417.843	8.62
418.624	8.62
419.406	9.62
420.188	10.62
420.969	9.62
421.751	7.62
422.532	9.62
423.313	13.62
424.095	8.62
424.876	11.62
425.657	10.62
426.438	9.62
427.219	10.62
428	9.62
428.78	12.62
429.561	11.62
430.342	12.62
431.122	11.62
431.903	12.62
432.683	12.62
433.464	13.62
434.244	14.62
435.024	15.62
435.804	15.62
436.584	16.62
437.364	19.62
438.144	19.62
438.924	19.62
439.704	22.62
440.483	23.62
441.263	25.62
442.042	25.62
442.822	25.62
443.601	27.62
444.38	28.62
445.16	34.62
445.939	36.62
446.718	36.62
447.497	41.62
448.276	45.62
449.054	50.62
449.833	51.62
450.612	56.62
451.391	62.62
452.169	71.62
452.948	78.62
453.726	81.62
454.504	88.62
455.282	105.62
456.061	111.62
456.839	124.62
457.617	134.62
458.395	156.62
459.172	170.62
459.95	190.62
460.728	208.62
461.506	235.62
462.283	262.62
463.061	293.62
463.838	322.62
464.615	361.62
465.393	392.62
466.17	447.62
466.947	494.62
467.724	553.62
468.501	604.62
469.278	664.62
470.055	738.62
470.831	815.62
471.608	907.62
472.385	989.62
473.161	1089.62
473.938	1213.62
474.714	1328.62
475.49	1478.62
476.266	1619.62
477.043	1769.62
477.819	1935.62
478.595	2110.62
479.371	2308.62
480.146	2545.62
480.922	2788.62
481.698	3056.62
482.473	3327.62
483.249	3632.62
484.024	3974.62
484.8	4313.62
485.575	4711.62
486.35	5124.62
487.126	5544.62
487.901	6049.62
488.676	6565.62
489.451	7186.62
490.225	7746.62
491	8431.62
491.775	9148.62
492.55	9890.62
493.324	10650.62
494.099	11430.62
494.873	12283.62
495.647	13212.62
496.422	14151.62
497.196	15121.62
497.97	16139.62
498.744	17205.62
499.518	18128.62
500.292	19137.62
501.066	20157.62
501.839	21121.62
502.613	22020.62
503.387	22800.62
504.16	23510.62
504.934	24070.62
505.707	24407.62
506.48	24614.62
507.253	24827.62
508.027	24888.62
508.8	24871.62
509.573	24768.62
510.346	24437.62
511.118	23967.62
511.891	23418.62
512.664	22859.62
513.437	22167.62
514.209	21381.62
514.982	20669.62
515.754	19876.62
516.526	19027.62
517.298	18327.62
518.071	17556.62
518.843	16924.62
519.615	16310.62
520.387	15698.62
521.159	15045.62
521.93	14433.62
522.702	13869.62
523.474	13292.62
524.245	12753.62
525.017	12224.62
525.788	11769.62
526.56	11271.62
527.331	10763.62
528.102	10311.62
528.873	9852.62
529.644	9398.62
530.415	8993.62
531.186	8558.62
531.957	8126.62
532.728	7782.62
533.498	7403.62
534.269	6970.62
535.039	6623.62
535.81	6269.62
536.58	5939.62
537.351	5577.62
538.121	5294.62
538.891	5039.62
539.661	4766.62
540.431	4492.62
541.201	4212.62
541.971	4009.62
542.741	3790.62
543.51	3632.62
544.28	3428.62
545.05	3270.62
545.819	3127.62
546.588	2967.62
547.358	2816.62
548.127	2695.62
548.896	2528.62
549.665	2428.62
550.434	2295.62
551.203	2170.62
551.972	2041.62
552.741	1960.62
553.51	1842.62
554.278	1752.62
555.047	1655.62
555.815	1573.62
556.584	1472.62
557.352	1410.62
558.121	1329.62
558.889	1245.62
559.657	1169.62
560.425	1117.62
561.193	1056.62
561.961	991.62
562.729	934.62
563.496	883.62
564.264	834.62
565.032	794.62
565.799	745.62
566.567	710.62
567.334	665.62
568.101	632.62
568.869	605.62
569.636	554.62
570.403	527.62
571.17	496.62
571.937	472.62
572.704	442.62
573.471	412.62
574.237	395.62
575.004	379.62
575.771	364.62
576.537	332.62
577.303	317.62
578.07	290.62
578.836	279.62
579.602	266.62
580.368	247.62
581.134	235.62
581.9	217.62
582.666	209.62
583.432	193.62
584.198	189.62
584.964	183.62
585.729	170.62
586.495	159.62
587.26	154.62
588.025	144.62
588.791	138.62
589.556	129.62
590.321	124.62
591.086	118.62
591.851	111.62
592.616	107.62
593.381	98.62
594.146	91.62
594.911	89.62
595.675	88.62
596.44	82.62
597.204	78.62
597.969	76.62
598.733	71.62
599.497	74.62
600.261	63.62
601.025	58.62
601.79	54.62
602.553	57.62
603.317	52.62
604.081	51.62
604.845	49.62
605.609	46.62
606.372	45.62
607.136	42.62
607.899	41.62
608.662	40.62
609.426	37.62
610.189	36.62
610.952	34.62
611.715	33.62
612.478	31.62
613.241	32.62
614.004	30.62
614.767	29.62
615.529	27.62
616.292	25.62
617.055	27.62
617.817	26.62
618.579	24.62
619.342	24.62
620.104	25.62
620.866	23.62
621.628	19.62
622.39	19.62
623.152	19.62
623.914	19.62
624.676	18.62
625.438	14.62
626.199	17.62
626.961	16.62
627.722	14.62
628.484	14.62
629.245	14.62
630.006	13.62
630.768	13.62
631.529	11.62
632.29	11.62
633.051	13.62
633.812	11.62
634.573	11.62
635.333	11.62
636.094	11.62
636.855	13.62
637.615	8.62
638.376	7.62
639.136	12.62
639.896	9.62
640.657	9.62
641.417	7.62
642.177	9.62
642.937	7.62
643.697	8.62
644.457	8.62
645.216	7.62
645.976	8.62
646.736	8.62
647.495	7.62
648.255	7.62
649.014	8.62
649.774	6.62
650.533	9.62
651.292	5.62
652.051	3.62
652.81	5.62
653.569	5.62
654.328	5.62
655.087	4.62
655.846	6.62
656.604	6.62
657.363	5.62
658.121	4.62
658.88	6.62
659.638	6.62
660.397	4.62
661.155	4.62
661.913	6.62
662.671	2.62
663.429	4.62
664.187	5.62
664.945	5.62
665.703	4.62
666.46	5.62
667.218	4.62
667.976	3.62
668.733	5.62
669.49	4.62
670.248	5.62
671.005	3.62
671.762	2.62
672.519	4.62
673.276	4.62
674.033	5.62
674.79	3.62
675.547	1.62
676.304	1.62
677.06	3.62
677.817	4.62
678.574	3.62
679.33	3.62
680.086	3.62
680.843	4.62
681.599	3.62
682.355	4.62
683.111	1.62
683.867	3.62
684.623	3.62
685.379	4.62
686.135	2.62
686.89	4.62
687.646	-0.38
688.402	3.62
689.157	1.62
689.912	2.62
690.668	1.62
691.423	0.62
692.178	3.62
692.933	1.62
693.688	3.62
694.443	3.62
695.198	5.62
695.953	6.62
696.708	5.62
697.462	4.62
698.217	4.62
698.972	3.62
699.726	0.62
700.48	1.62
701.235	4.62
701.989	4.62
702.743	2.62
703.497	2.62
704.251	1.62
705.005	2.62
705.759	4.62
706.513	2.62
707.266	3.62
708.02	4.62
708.774	2.62
709.527	4.62
710.28	4.62
711.034	2.62
711.787	3.62
712.54	2.62
713.293	2.62
714.046	3.62
714.799	4.62
715.552	1.62
716.305	1.62
717.058	3.62
717.81	3.62
718.563	3.62
719.315	3.62
720.068	3.62
720.82	3.62
721.573	4.62
722.325	2.62
723.077	2.62
723.829	4.62
724.581	2.62
725.333	1.62
726.085	2.62
726.836	2.62
727.588	5.62
728.34	3.62
729.091	1.62
729.843	4.62
730.594	3.62
731.346	5.62
732.097	2.62
732.848	3.62
733.599	4.62
734.35	2.62
735.101	1.62
735.852	5.62
736.603	3.62
737.354	2.62
738.104	3.62
738.855	4.62
739.605	2.62
740.356	2.62
741.106	3.62
741.856	4.62
742.607	5.62
743.357	1.62
744.107	2.62
744.857	4.62
745.607	4.62
746.357	6.62
747.106	3.62
747.856	2.62
748.606	5.62
749.355	5.62
750.105	1.62
750.854	3.62
751.603	4.62
752.353	4.62
753.102	3.62
753.851	6.62
754.6	3.62
755.349	4.62
756.098	3.62
756.847	4.62
757.595	3.62
758.344	5.62
759.093	3.62
759.841	4.62
760.589	4.62
761.338	5.62
762.086	7.62
762.834	5.62
763.582	5.62
764.331	6.62
765.079	4.62
765.826	6.62
766.574	4.62
767.322	4.62
768.07	3.62
768.817	4.62
769.565	6.62
770.312	7.62
771.06	7.62
771.807	3.62
772.554	6.62
773.302	6.62
774.049	6.62
774.796	5.62
775.543	5.62
776.29	7.62
777.036	7.62
777.783	8.62
778.53	6.62
779.276	7.62
780.023	6.62
780.769	7.62
781.516	8.62
782.262	8.62
783.008	7.62
783.754	5.62
784.5	7.62
785.246	5.62
785.992	5.62
786.738	5.62
787.484	7.62
788.23	7.62
788.975	8.62
789.721	5.62
790.466	6.62
791.212	9.62
791.957	7.62
792.702	6.62
793.447	7.62
794.193	2.62
794.938	9.62
795.683	6.62
796.427	5.62
797.172	5.62
797.917	7.62
798.662	6.62
799.406	6.62
800.151	6.62
800.895	6.62
801.64	8.62
802.384	6.62
803.128	3.62
803.872	7.62
804.616	6.62
805.36	5.62
806.104	5.62
806.848	6.62
807.592	6.62
808.336	3.62
809.079	2.62
809.823	3.62
810.566	4.62
811.31	6.62
812.053	4.62
812.796	6.62
813.539	3.62
814.283	5.62
815.026	3.62
815.769	5.62
816.511	6.62
817.254	4.62
817.997	3.62
818.74	3.62
819.482	3.62
820.225	2.62
820.967	2.62
821.71	3.62
822.452	3.62
823.194	2.62
823.936	1.62
824.678	4.62
825.42	5.62
826.162	2.62
826.904	3.62
827.646	3.62
828.388	4.62
829.129	3.62
829.871	2.62
830.612	1.62
831.354	3.62
832.095	4.62
832.836	2.62
833.577	5.62
834.319	1.62
835.06	3.62
835.801	1.62
836.542	2.62
837.282	3.62
838.023	0.62
838.764	2.62
839.504	-0.38
840.245	3.62
840.985	2.62
841.726	1.62
842.466	1.62
843.206	4.62
843.946	2.62
844.687	4.62
845.427	2.62
846.166	1.62
846.906	1.62
847.646	3.62
848.386	3.62
849.125	1.62
849.865	2.62
850.605	2.62
851.344	3.62
852.083	1.62
852.823	4.62
853.562	1.62
854.301	1.62
855.04	1.62
855.779	2.62
856.518	1.62
857.257	0.62
857.995	4.62
858.734	0.62
859.473	3.62
860.211	1.62
860.95	0.62
861.688	2.62
862.426	0.62
863.165	4.62
863.903	2.62
864.641	1.62
865.379	1.62
866.117	0.62
866.855	2.62
867.593	1.62
868.33	0.62
869.068	1.62
869.806	-2.38
870.543	1.62
871.28	1.62
872.018	3.62
872.755	0.62
873.492	3.62
874.229	0.62
874.967	0.62
875.703	0.62
876.44	-1.38
877.177	3.62
877.914	0.62
878.651	-0.38
879.387	0.62
880.124	-0.38
880.86	0.62
881.597	-0.38
882.333	1.62
883.069	1.62
883.806	2.62
884.542	-1.38
885.278	0.62
886.014	1.62
886.749	-2.38
887.485	2.62
888.221	1.62
888.957	2.62
889.692	-1.38
890.428	-0.38
891.163	1.62
891.899	-0.38
892.634	0.62
893.369	-0.38
894.104	-0.38
894.839	1.62
895.574	-0.38
896.309	2.62
897.044	-0.38
897.779	1.62
898.514	0.62
899.248	0.62
899.983	0.62
900.717	0.62
901.452	2.62
902.186	0.62
902.92	0.62
903.654	-0.38
904.389	2.62
905.123	-0.38
905.857	-2.38
906.59	0.62
907.324	-1.38
908.058	-0.38
908.792	1.62
909.525	0.62
910.259	-1.38
910.992	-0.38
911.726	-0.38
912.459	0.62
913.192	0.62
913.925	0.62
914.658	-1.38
915.391	-1.38
916.124	-0.38
916.857	0.62
917.59	-0.38
918.323	-0.38
919.055	0.62
919.788	-2.38
920.521	-0.38
921.253	-3.38
921.985	1.62
922.718	1.62
923.45	1.62
924.182	-0.38
924.914	-0.38
925.646	0.62
926.378	1.62
927.11	-1.38
927.841	-0.38
928.573	-0.38
929.305	-0.38
930.036	-1.38
930.768	-0.38
931.499	-0.38
932.23	-0.38
932.962	1.62
933.693	-1.38
934.424	0.62
935.155	0.62
935.886	-1.38
936.617	-0.38
937.348	-0.38
938.078	-2.38
938.809	-1.38
939.54	1.62
940.27	1.62
941.001	-0.38
941.731	-0.38
942.461	-0.38
943.191	-0.38
943.922	-0.38
944.652	0.62
945.382	0.62
946.112	0.62
946.841	-1.38
947.571	1.62
948.301	-0.38
949.031	-1.38
949.76	0.62
950.49	0.62
951.219	1.62
951.948	0.62
952.678	-1.38
953.407	0.62
954.136	-1.38
954.865	0.62
955.594	-1.38
956.323	-1.38
957.052	-0.38
957.78	-1.38
958.509	0.62
959.238	0.62
959.966	0.62
960.695	-0.38
961.423	0.62
962.151	-1.38
962.88	0.62
963.608	0.62
964.336	-0.38
965.064	-1.38
965.792	-0.38
966.52	0.62
967.247	1.62
967.975	-1.38
968.703	-0.38
969.43	-2.38
970.158	0.62
970.885	-0.38
971.613	-1.38
972.34	-0.38
973.067	-2.38
973.794	0.62
974.521	-0.38
975.248	0.62
975.975	-1.38
976.702	0.62
977.429	-0.38
978.156	-3.38
978.882	-0.38
979.609	0.62
980.335	0.62
981.062	-0.38
981.788	0.62
982.514	-2.38
983.24	-1.38
983.967	-0.38
984.693	-0.38
985.419	0.62
986.144	-1.38
986.87	0.62
987.596	-2.38
988.322	-0.38
989.047	-0.38
989.773	-2.38
990.498	-0.38
991.224	0.62
991.949	0.62
992.674	0.62
993.399	0.62
994.124	0.62
994.849	-0.38
995.574	0.62
996.299	1.62
997.024	0.62
997.749	-0.38
998.473	-0.38
999.198	0.62
999.922	-2.38
1000.647	-0.38
1001.371	3.62
1002.095	-0.38
1002.82	-1.38
1003.544	-0.38
1004.268	0.62
1004.992	0.62
1005.716	1.62
1006.439	0.62
1007.163	1.62
1007.887	1.62
1008.611	0.62
1009.334	-1.38
1010.058	3.62
1010.781	-1.38
1011.504	0.62
1012.228	-0.38
1012.951	-1.38
1013.674	-0.38
1014.397	-0.38
1015.12	0.62
