节点500_285_QEPB04081__515__15-04-07-343.txt的数据

Date: Wed Nov 12 15:04:07 CST 2025
User: PC
Spectrometer: QEPB0408
触发模式: 0
积分时间 (秒): 1.000000E-2
Scans to average: 1
启用暗噪声校正: true
启用非线性校正: false
滑动平均宽度: 0
X轴模式: Wavelengths
Number of Pixels in Spectrum: 1044
>>>>>Begin Spectral Data<<<<<
220.843	2.62
221.644	0.62
222.444	1.62
223.244	2.62
224.045	0.62
224.845	2.62
225.645	-0.38
226.445	1.62
227.245	2.62
228.045	2.62
228.845	3.62
229.645	1.62
230.444	0.62
231.244	3.62
232.043	1.62
232.843	3.62
233.642	3.62
234.442	4.62
235.241	3.62
236.04	3.62
236.839	4.62
237.638	3.62
238.437	4.62
239.236	3.62
240.035	5.62
240.833	6.62
241.632	6.62
242.43	5.62
243.229	5.62
244.027	6.62
244.826	5.62
245.624	8.62
246.422	5.62
247.22	7.62
248.018	4.62
248.816	5.62
249.614	6.62
250.412	3.62
251.21	6.62
252.007	9.62
252.805	5.62
253.602	6.62
254.4	5.62
255.197	7.62
255.994	6.62
256.791	6.62
257.589	6.62
258.386	10.62
259.183	8.62
259.979	9.62
260.776	11.62
261.573	9.62
262.37	11.62
263.166	9.62
263.963	11.62
264.759	8.62
265.556	13.62
266.352	11.62
267.148	13.62
267.944	12.62
268.74	14.62
269.536	12.62
270.332	14.62
271.128	12.62
271.924	12.62
272.719	14.62
273.515	15.62
274.311	16.62
275.106	17.62
275.901	16.62
276.697	17.62
277.492	15.62
278.287	16.62
279.082	14.62
279.877	19.62
280.672	15.62
281.467	19.62
282.262	18.62
283.056	15.62
283.851	19.62
284.646	16.62
285.44	18.62
286.234	17.62
287.029	16.62
287.823	17.62
288.617	17.62
289.411	18.62
290.205	15.62
290.999	17.62
291.793	17.62
292.587	16.62
293.381	16.62
294.174	16.62
294.968	14.62
295.761	16.62
296.555	12.62
297.348	12.62
298.141	13.62
298.935	16.62
299.728	14.62
300.521	13.62
301.314	16.62
302.107	11.62
302.899	13.62
303.692	11.62
304.485	11.62
305.277	11.62
306.07	11.62
306.862	13.62
307.655	10.62
308.447	11.62
309.239	10.62
310.031	13.62
310.823	9.62
311.615	9.62
312.407	10.62
313.199	7.62
313.991	9.62
314.783	7.62
315.574	8.62
316.366	11.62
317.157	7.62
317.949	8.62
318.74	7.62
319.531	9.62
320.322	6.62
321.113	8.62
321.904	7.62
322.695	4.62
323.486	8.62
324.277	6.62
325.068	6.62
325.858	7.62
326.649	4.62
327.439	7.62
328.23	5.62
329.02	4.62
329.81	6.62
330.6	7.62
331.391	6.62
332.181	6.62
332.971	6.62
333.76	6.62
334.55	9.62
335.34	5.62
336.13	6.62
336.919	5.62
337.709	3.62
338.498	7.62
339.287	6.62
340.077	5.62
340.866	3.62
341.655	5.62
342.444	5.62
343.233	4.62
344.022	6.62
344.811	5.62
345.6	7.62
346.388	6.62
347.177	7.62
347.965	7.62
348.754	5.62
349.542	4.62
350.33	4.62
351.119	3.62
351.907	7.62
352.695	5.62
353.483	4.62
354.271	5.62
355.059	6.62
355.846	5.62
356.634	6.62
357.422	5.62
358.209	4.62
358.997	7.62
359.784	3.62
360.571	5.62
361.359	4.62
362.146	6.62
362.933	3.62
363.72	4.62
364.507	4.62
365.294	5.62
366.081	5.62
366.867	5.62
367.654	5.62
368.44	5.62
369.227	2.62
370.013	4.62
370.8	4.62
371.586	6.62
372.372	4.62
373.158	3.62
373.944	5.62
374.73	4.62
375.516	5.62
376.302	4.62
377.088	5.62
377.873	5.62
378.659	4.62
379.445	4.62
380.23	4.62
381.015	4.62
381.801	6.62
382.586	4.62
383.371	5.62
384.156	6.62
384.941	4.62
385.726	3.62
386.511	6.62
387.296	4.62
388.08	4.62
388.865	5.62
389.649	4.62
390.434	7.62
391.218	6.62
392.003	4.62
392.787	4.62
393.571	5.62
394.355	4.62
395.139	5.62
395.923	7.62
396.707	6.62
397.491	5.62
398.274	5.62
399.058	6.62
399.842	6.62
400.625	6.62
401.408	8.62
402.192	5.62
402.975	6.62
403.758	8.62
404.541	5.62
405.324	9.62
406.107	7.62
406.89	6.62
407.673	7.62
408.456	8.62
409.238	9.62
410.021	8.62
410.803	8.62
411.586	8.62
412.368	8.62
413.151	8.62
413.933	8.62
414.715	8.62
415.497	10.62
416.279	7.62
417.061	11.62
417.843	9.62
418.624	9.62
419.406	9.62
420.188	9.62
420.969	9.62
421.751	8.62
422.532	10.62
423.313	9.62
424.095	9.62
424.876	9.62
425.657	9.62
426.438	11.62
427.219	9.62
428	11.62
428.78	9.62
429.561	16.62
430.342	14.62
431.122	14.62
431.903	14.62
432.683	16.62
433.464	15.62
434.244	16.62
435.024	17.62
435.804	20.62
436.584	22.62
437.364	20.62
438.144	19.62
438.924	21.62
439.704	22.62
440.483	20.62
441.263	22.62
442.042	23.62
442.822	27.62
443.601	25.62
444.38	28.62
445.16	28.62
445.939	33.62
446.718	37.62
447.497	37.62
448.276	43.62
449.054	44.62
449.833	50.62
450.612	53.62
451.391	59.62
452.169	60.62
452.948	69.62
453.726	77.62
454.504	85.62
455.282	95.62
456.061	105.62
456.839	112.62
457.617	123.62
458.395	136.62
459.172	159.62
459.95	172.62
460.728	189.62
461.506	218.62
462.283	237.62
463.061	272.62
463.838	300.62
464.615	335.62
465.393	367.62
466.17	420.62
466.947	458.62
467.724	510.62
468.501	572.62
469.278	636.62
470.055	705.62
470.831	772.62
471.608	864.62
472.385	958.62
473.161	1064.62
473.938	1195.62
474.714	1317.62
475.49	1452.62
476.266	1588.62
477.043	1753.62
477.819	1938.62
478.595	2114.62
479.371	2350.62
480.146	2588.62
480.922	2841.62
481.698	3103.62
482.473	3424.62
483.249	3756.62
484.024	4097.62
484.8	4541.62
485.575	4953.62
486.35	5432.62
487.126	5920.62
487.901	6505.62
488.676	7143.62
489.451	7755.62
490.225	8502.62
491	9224.62
491.775	10055.62
492.55	10977.62
493.324	11870.62
494.099	12737.62
494.873	13725.62
495.647	14771.62
496.422	15871.62
497.196	16984.62
497.97	18171.62
498.744	19263.62
499.518	20401.62
500.292	21493.62
501.066	22558.62
501.839	23457.62
502.613	24367.62
503.387	25217.62
504.16	25864.62
504.934	26277.62
505.707	26481.62
506.48	26637.62
507.253	26588.62
508.027	26524.62
508.8	26330.62
509.573	25994.62
510.346	25399.62
511.118	24787.62
511.891	24084.62
512.664	23301.62
513.437	22527.62
514.209	21621.62
514.982	20751.62
515.754	19870.62
516.526	19009.62
517.298	18207.62
518.071	17384.62
518.843	16781.62
519.615	16129.62
520.387	15512.62
521.159	14875.62
521.93	14281.62
522.702	13696.62
523.474	13131.62
524.245	12556.62
525.017	12052.62
525.788	11621.62
526.56	11079.62
527.331	10578.62
528.102	10116.62
528.873	9652.62
529.644	9143.62
530.415	8716.62
531.186	8297.62
531.957	7839.62
532.728	7480.62
533.498	7148.62
534.269	6705.62
535.039	6343.62
535.81	6013.62
536.58	5654.62
537.351	5336.62
538.121	5051.62
538.891	4753.62
539.661	4533.62
540.431	4279.62
541.201	4054.62
541.971	3838.62
542.741	3640.62
543.51	3424.62
544.28	3294.62
545.05	3115.62
545.819	2965.62
546.588	2826.62
547.358	2662.62
548.127	2537.62
548.896	2420.62
549.665	2282.62
550.434	2168.62
551.203	2048.62
551.972	1965.62
552.741	1840.62
553.51	1771.62
554.278	1647.62
555.047	1543.62
555.815	1472.62
556.584	1379.62
557.352	1310.62
558.121	1248.62
558.889	1168.62
559.657	1115.62
560.425	1047.62
561.193	986.62
561.961	922.62
562.729	876.62
563.496	823.62
564.264	785.62
565.032	738.62
565.799	705.62
566.567	672.62
567.334	636.62
568.101	591.62
568.869	568.62
569.636	515.62
570.403	503.62
571.17	465.62
571.937	445.62
572.704	416.62
573.471	395.62
574.237	368.62
575.004	361.62
575.771	332.62
576.537	305.62
577.303	297.62
578.07	275.62
578.836	257.62
579.602	238.62
580.368	231.62
581.134	220.62
581.9	210.62
582.666	201.62
583.432	188.62
584.198	180.62
584.964	165.62
585.729	159.62
586.495	159.62
587.26	144.62
588.025	135.62
588.791	128.62
589.556	120.62
590.321	115.62
591.086	107.62
591.851	105.62
592.616	98.62
593.381	96.62
594.146	92.62
594.911	83.62
595.675	81.62
596.44	75.62
597.204	72.62
597.969	68.62
598.733	67.62
599.497	65.62
600.261	61.62
601.025	58.62
601.79	57.62
602.553	53.62
603.317	49.62
604.081	50.62
604.845	47.62
605.609	41.62
606.372	42.62
607.136	41.62
607.899	41.62
608.662	38.62
609.426	32.62
610.189	36.62
610.952	35.62
611.715	30.62
612.478	30.62
613.241	33.62
614.004	29.62
614.767	27.62
615.529	23.62
616.292	25.62
617.055	26.62
617.817	25.62
618.579	21.62
619.342	25.62
620.104	22.62
620.866	22.62
621.628	18.62
622.39	19.62
623.152	20.62
623.914	18.62
624.676	15.62
625.438	14.62
626.199	15.62
626.961	15.62
627.722	14.62
628.484	17.62
629.245	15.62
630.006	13.62
630.768	11.62
631.529	14.62
632.29	13.62
633.051	12.62
633.812	9.62
634.573	9.62
635.333	14.62
636.094	9.62
636.855	10.62
637.615	10.62
638.376	11.62
639.136	9.62
639.896	9.62
640.657	11.62
641.417	6.62
642.177	11.62
642.937	11.62
643.697	7.62
644.457	7.62
645.216	6.62
645.976	9.62
646.736	6.62
647.495	9.62
648.255	7.62
649.014	4.62
649.774	7.62
650.533	5.62
651.292	8.62
652.051	7.62
652.81	4.62
653.569	4.62
654.328	7.62
655.087	6.62
655.846	6.62
656.604	6.62
657.363	5.62
658.121	5.62
658.88	6.62
659.638	5.62
660.397	6.62
661.155	5.62
661.913	2.62
662.671	4.62
663.429	4.62
664.187	3.62
664.945	1.62
665.703	4.62
666.46	1.62
667.218	3.62
667.976	4.62
668.733	2.62
669.49	4.62
670.248	3.62
671.005	4.62
671.762	5.62
672.519	3.62
673.276	3.62
674.033	4.62
674.79	4.62
675.547	1.62
676.304	4.62
677.06	3.62
677.817	4.62
678.574	5.62
679.33	4.62
680.086	5.62
680.843	3.62
681.599	4.62
682.355	2.62
683.111	4.62
683.867	4.62
684.623	4.62
685.379	5.62
686.135	2.62
686.89	3.62
687.646	5.62
688.402	-0.38
689.157	5.62
689.912	4.62
690.668	1.62
691.423	3.62
692.178	2.62
692.933	3.62
693.688	4.62
694.443	3.62
695.198	4.62
695.953	4.62
696.708	2.62
697.462	2.62
698.217	3.62
698.972	1.62
699.726	2.62
700.48	3.62
701.235	2.62
701.989	3.62
702.743	4.62
703.497	3.62
704.251	1.62
705.005	3.62
705.759	3.62
706.513	2.62
707.266	4.62
708.02	-0.38
708.774	3.62
709.527	1.62
710.28	2.62
711.034	3.62
711.787	2.62
712.54	2.62
713.293	-0.38
714.046	2.62
714.799	4.62
715.552	4.62
716.305	3.62
717.058	3.62
717.81	5.62
718.563	1.62
719.315	5.62
720.068	5.62
720.82	2.62
721.573	1.62
722.325	3.62
723.077	1.62
723.829	2.62
724.581	4.62
725.333	1.62
726.085	3.62
726.836	3.62
727.588	3.62
728.34	5.62
729.091	2.62
729.843	5.62
730.594	1.62
731.346	3.62
732.097	5.62
732.848	3.62
733.599	4.62
734.35	3.62
735.101	3.62
735.852	2.62
736.603	2.62
737.354	4.62
738.104	3.62
738.855	4.62
739.605	4.62
740.356	5.62
741.106	2.62
741.856	2.62
742.607	3.62
743.357	3.62
744.107	3.62
744.857	4.62
745.607	1.62
746.357	5.62
747.106	1.62
747.856	5.62
748.606	5.62
749.355	4.62
750.105	4.62
750.854	5.62
751.603	3.62
752.353	4.62
753.102	7.62
753.851	5.62
754.6	4.62
755.349	7.62
756.098	1.62
756.847	3.62
757.595	6.62
758.344	4.62
759.093	6.62
759.841	4.62
760.589	6.62
761.338	4.62
762.086	5.62
762.834	2.62
763.582	5.62
764.331	5.62
765.079	4.62
765.826	7.62
766.574	5.62
767.322	5.62
768.07	5.62
768.817	6.62
769.565	8.62
770.312	8.62
771.06	8.62
771.807	4.62
772.554	5.62
773.302	6.62
774.049	5.62
774.796	7.62
775.543	7.62
776.29	8.62
777.036	8.62
777.783	6.62
778.53	6.62
779.276	6.62
780.023	6.62
780.769	8.62
781.516	9.62
782.262	9.62
783.008	8.62
783.754	6.62
784.5	6.62
785.246	9.62
785.992	7.62
786.738	7.62
787.484	9.62
788.23	9.62
788.975	8.62
789.721	7.62
790.466	9.62
791.212	7.62
791.957	7.62
792.702	8.62
793.447	6.62
794.193	7.62
794.938	6.62
795.683	9.62
796.427	8.62
797.172	7.62
797.917	5.62
798.662	5.62
799.406	6.62
800.151	6.62
800.895	6.62
801.64	7.62
802.384	2.62
803.128	7.62
803.872	5.62
804.616	6.62
805.36	3.62
806.104	6.62
806.848	5.62
807.592	5.62
808.336	5.62
809.079	6.62
809.823	7.62
810.566	5.62
811.31	6.62
812.053	5.62
812.796	1.62
813.539	4.62
814.283	1.62
815.026	5.62
815.769	5.62
816.511	5.62
817.254	4.62
817.997	3.62
818.74	6.62
819.482	3.62
820.225	4.62
820.967	4.62
821.71	1.62
822.452	6.62
823.194	2.62
823.936	5.62
824.678	2.62
825.42	4.62
826.162	4.62
826.904	1.62
827.646	4.62
828.388	4.62
829.129	2.62
829.871	1.62
830.612	2.62
831.354	2.62
832.095	2.62
832.836	2.62
833.577	5.62
834.319	4.62
835.06	2.62
835.801	2.62
836.542	4.62
837.282	1.62
838.023	2.62
838.764	3.62
839.504	1.62
840.245	1.62
840.985	3.62
841.726	3.62
842.466	1.62
843.206	0.62
843.946	2.62
844.687	3.62
845.427	4.62
846.166	1.62
846.906	3.62
847.646	5.62
848.386	3.62
849.125	4.62
849.865	3.62
850.605	1.62
851.344	1.62
852.083	1.62
852.823	3.62
853.562	0.62
854.301	2.62
855.04	0.62
855.779	3.62
856.518	1.62
857.257	2.62
857.995	1.62
858.734	1.62
859.473	4.62
860.211	2.62
860.95	2.62
861.688	1.62
862.426	4.62
863.165	0.62
863.903	1.62
864.641	4.62
865.379	1.62
866.117	2.62
866.855	1.62
867.593	4.62
868.33	1.62
869.068	1.62
869.806	3.62
870.543	0.62
871.28	-0.38
872.018	-0.38
872.755	1.62
873.492	1.62
874.229	0.62
874.967	1.62
875.703	1.62
876.44	2.62
877.177	-0.38
877.914	2.62
878.651	1.62
879.387	0.62
880.124	1.62
880.86	2.62
881.597	0.62
882.333	1.62
883.069	0.62
883.806	1.62
884.542	2.62
885.278	-0.38
886.014	0.62
886.749	0.62
887.485	1.62
888.221	-1.38
888.957	2.62
889.692	1.62
890.428	0.62
891.163	0.62
891.899	-0.38
892.634	1.62
893.369	-1.38
894.104	0.62
894.839	1.62
895.574	-2.38
896.309	0.62
897.044	0.62
897.779	1.62
898.514	1.62
899.248	1.62
899.983	1.62
900.717	-0.38
901.452	1.62
902.186	1.62
902.92	0.62
903.654	-0.38
904.389	-0.38
905.123	1.62
905.857	-0.38
906.59	1.62
907.324	1.62
908.058	2.62
908.792	1.62
909.525	1.62
910.259	0.62
910.992	-0.38
911.726	1.62
912.459	1.62
913.192	3.62
913.925	-0.38
914.658	-1.38
915.391	0.62
916.124	-0.38
916.857	0.62
917.59	-0.38
918.323	-0.38
919.055	3.62
919.788	-0.38
920.521	2.62
921.253	1.62
921.985	-0.38
922.718	-0.38
923.45	0.62
924.182	0.62
924.914	-2.38
925.646	2.62
926.378	1.62
927.11	4.62
927.841	0.62
928.573	-0.38
929.305	0.62
930.036	-2.38
930.768	0.62
931.499	0.62
932.23	1.62
932.962	-0.38
933.693	0.62
934.424	0.62
935.155	-1.38
935.886	0.62
936.617	-1.38
937.348	-1.38
938.078	-0.38
938.809	-2.38
939.54	0.62
940.27	1.62
941.001	-1.38
941.731	-0.38
942.461	-0.38
943.191	-1.38
943.922	0.62
944.652	0.62
945.382	-0.38
946.112	-1.38
946.841	0.62
947.571	-0.38
948.301	-0.38
949.031	-1.38
949.76	1.62
950.49	-0.38
951.219	-0.38
951.948	-0.38
952.678	0.62
953.407	0.62
954.136	-0.38
954.865	-1.38
955.594	0.62
956.323	0.62
957.052	1.62
957.78	0.62
958.509	1.62
959.238	0.62
959.966	-1.38
960.695	-0.38
961.423	-0.38
962.151	0.62
962.88	-2.38
963.608	-1.38
964.336	0.62
965.064	-0.38
965.792	0.62
966.52	-0.38
967.247	0.62
967.975	-0.38
968.703	1.62
969.43	-0.38
970.158	-0.38
970.885	-0.38
971.613	-3.38
972.34	0.62
973.067	-0.38
973.794	2.62
974.521	1.62
975.248	0.62
975.975	-0.38
976.702	1.62
977.429	-1.38
978.156	0.62
978.882	0.62
979.609	0.62
980.335	-0.38
981.062	0.62
981.788	-1.38
982.514	0.62
983.24	1.62
983.967	0.62
984.693	-0.38
985.419	0.62
986.144	-0.38
986.87	-2.38
987.596	-0.38
988.322	0.62
989.047	0.62
989.773	-0.38
990.498	0.62
991.224	0.62
991.949	-2.38
992.674	-0.38
993.399	-3.38
994.124	0.62
994.849	-1.38
995.574	-1.38
996.299	-1.38
997.024	1.62
997.749	-0.38
998.473	-2.38
999.198	0.62
999.922	1.62
1000.647	-2.38
1001.371	3.62
1002.095	0.62
1002.82	-1.38
1003.544	-1.38
1004.268	0.62
1004.992	1.62
1005.716	-0.38
1006.439	1.62
1007.163	2.62
1007.887	0.62
1008.611	-0.38
1009.334	-0.38
1010.058	0.62
1010.781	0.62
1011.504	0.62
1012.228	2.62
1012.951	-1.38
1013.674	0.62
1014.397	-0.38
1015.12	-0.38
