节点500_285_QEPB04081__438__15-02-50-536.txt的数据

Date: Wed Nov 12 15:02:50 CST 2025
User: PC
Spectrometer: QEPB0408
触发模式: 0
积分时间 (秒): 1.000000E-2
Scans to average: 1
启用暗噪声校正: true
启用非线性校正: false
滑动平均宽度: 0
X轴模式: Wavelengths
Number of Pixels in Spectrum: 1044
>>>>>Begin Spectral Data<<<<<
220.843	1.88
221.644	-0.12
222.444	2.88
223.244	1.88
224.045	-0.12
224.845	2.88
225.645	3.88
226.445	3.88
227.245	1.88
228.045	1.88
228.845	2.88
229.645	2.88
230.444	3.88
231.244	1.88
232.043	1.88
232.843	2.88
233.642	4.88
234.442	6.88
235.241	4.88
236.04	3.88
236.839	1.88
237.638	2.88
238.437	3.88
239.236	3.88
240.035	1.88
240.833	2.88
241.632	0.88
242.43	6.88
243.229	3.88
244.027	4.88
244.826	4.88
245.624	5.88
246.422	5.88
247.22	6.88
248.018	5.88
248.816	5.88
249.614	7.88
250.412	4.88
251.21	7.88
252.007	5.88
252.805	6.88
253.602	5.88
254.4	6.88
255.197	6.88
255.994	5.88
256.791	9.88
257.589	7.88
258.386	9.88
259.183	8.88
259.979	9.88
260.776	9.88
261.573	10.88
262.37	11.88
263.166	11.88
263.963	11.88
264.759	12.88
265.556	14.88
266.352	13.88
267.148	11.88
267.944	10.88
268.74	13.88
269.536	10.88
270.332	15.88
271.128	13.88
271.924	14.88
272.719	17.88
273.515	15.88
274.311	13.88
275.106	15.88
275.901	16.88
276.697	15.88
277.492	16.88
278.287	17.88
279.082	19.88
279.877	20.88
280.672	17.88
281.467	19.88
282.262	17.88
283.056	17.88
283.851	17.88
284.646	17.88
285.44	19.88
286.234	15.88
287.029	21.88
287.823	20.88
288.617	16.88
289.411	16.88
290.205	17.88
290.999	17.88
291.793	16.88
292.587	17.88
293.381	16.88
294.174	16.88
294.968	18.88
295.761	14.88
296.555	16.88
297.348	13.88
298.141	14.88
298.935	15.88
299.728	14.88
300.521	15.88
301.314	15.88
302.107	13.88
302.899	10.88
303.692	11.88
304.485	11.88
305.277	14.88
306.07	13.88
306.862	10.88
307.655	11.88
308.447	11.88
309.239	11.88
310.031	13.88
310.823	10.88
311.615	9.88
312.407	10.88
313.199	9.88
313.991	11.88
314.783	5.88
315.574	9.88
316.366	11.88
317.157	9.88
317.949	9.88
318.74	8.88
319.531	8.88
320.322	7.88
321.113	4.88
321.904	7.88
322.695	8.88
323.486	6.88
324.277	7.88
325.068	5.88
325.858	5.88
326.649	7.88
327.439	5.88
328.23	4.88
329.02	5.88
329.81	6.88
330.6	6.88
331.391	7.88
332.181	8.88
332.971	6.88
333.76	3.88
334.55	4.88
335.34	6.88
336.13	7.88
336.919	4.88
337.709	7.88
338.498	4.88
339.287	6.88
340.077	6.88
340.866	7.88
341.655	5.88
342.444	7.88
343.233	7.88
344.022	8.88
344.811	5.88
345.6	5.88
346.388	6.88
347.177	7.88
347.965	7.88
348.754	5.88
349.542	6.88
350.33	4.88
351.119	5.88
351.907	4.88
352.695	6.88
353.483	5.88
354.271	4.88
355.059	6.88
355.846	5.88
356.634	4.88
357.422	3.88
358.209	6.88
358.997	4.88
359.784	4.88
360.571	5.88
361.359	4.88
362.146	5.88
362.933	5.88
363.72	6.88
364.507	6.88
365.294	4.88
366.081	3.88
366.867	2.88
367.654	3.88
368.44	5.88
369.227	6.88
370.013	5.88
370.8	4.88
371.586	6.88
372.372	5.88
373.158	4.88
373.944	6.88
374.73	4.88
375.516	3.88
376.302	4.88
377.088	4.88
377.873	4.88
378.659	4.88
379.445	5.88
380.23	5.88
381.015	5.88
381.801	6.88
382.586	6.88
383.371	1.88
384.156	4.88
384.941	3.88
385.726	4.88
386.511	5.88
387.296	6.88
388.08	6.88
388.865	5.88
389.649	5.88
390.434	6.88
391.218	3.88
392.003	6.88
392.787	5.88
393.571	4.88
394.355	7.88
395.139	5.88
395.923	2.88
396.707	4.88
397.491	3.88
398.274	5.88
399.058	3.88
399.842	7.88
400.625	5.88
401.408	6.88
402.192	7.88
402.975	6.88
403.758	8.88
404.541	4.88
405.324	8.88
406.107	7.88
406.89	6.88
407.673	9.88
408.456	7.88
409.238	6.88
410.021	8.88
410.803	7.88
411.586	8.88
412.368	5.88
413.151	9.88
413.933	9.88
414.715	10.88
415.497	8.88
416.279	8.88
417.061	8.88
417.843	8.88
418.624	7.88
419.406	8.88
420.188	7.88
420.969	12.88
421.751	10.88
422.532	10.88
423.313	9.88
424.095	9.88
424.876	9.88
425.657	9.88
426.438	11.88
427.219	11.88
428	12.88
428.78	12.88
429.561	11.88
430.342	13.88
431.122	13.88
431.903	14.88
432.683	12.88
433.464	18.88
434.244	15.88
435.024	15.88
435.804	14.88
436.584	18.88
437.364	18.88
438.144	19.88
438.924	20.88
439.704	22.88
440.483	18.88
441.263	25.88
442.042	24.88
442.822	27.88
443.601	24.88
444.38	29.88
445.16	31.88
445.939	33.88
446.718	37.88
447.497	41.88
448.276	45.88
449.054	49.88
449.833	47.88
450.612	51.88
451.391	57.88
452.169	58.88
452.948	63.88
453.726	75.88
454.504	83.88
455.282	93.88
456.061	102.88
456.839	116.88
457.617	124.88
458.395	140.88
459.172	152.88
459.95	169.88
460.728	183.88
461.506	221.88
462.283	234.88
463.061	263.88
463.838	289.88
464.615	326.88
465.393	361.88
466.17	409.88
466.947	456.88
467.724	510.88
468.501	570.88
469.278	626.88
470.055	694.88
470.831	778.88
471.608	863.88
472.385	966.88
473.161	1066.88
473.938	1178.88
474.714	1304.88
475.49	1447.88
476.266	1590.88
477.043	1745.88
477.819	1952.88
478.595	2114.88
479.371	2341.88
480.146	2571.88
480.922	2840.88
481.698	3157.88
482.473	3433.88
483.249	3801.88
484.024	4147.88
484.8	4547.88
485.575	4997.88
486.35	5508.88
487.126	6036.88
487.901	6609.88
488.676	7213.88
489.451	7904.88
490.225	8585.88
491	9407.88
491.775	10232.88
492.55	11123.88
493.324	12100.88
494.099	13009.88
494.873	13996.88
495.647	15106.88
496.422	16281.88
497.196	17365.88
497.97	18498.88
498.744	19679.88
499.518	20765.88
500.292	21946.88
501.066	23075.88
501.839	24028.88
502.613	24886.88
503.387	25645.88
504.16	26308.88
504.934	26645.88
505.707	26889.88
506.48	27017.88
507.253	27017.88
508.027	26757.88
508.8	26541.88
509.573	26122.88
510.346	25633.88
511.118	24831.88
511.891	24128.88
512.664	23388.88
513.437	22526.88
514.209	21628.88
514.982	20688.88
515.754	19878.88
516.526	18973.88
517.298	18169.88
518.071	17340.88
518.843	16706.88
519.615	16015.88
520.387	15413.88
521.159	14795.88
521.93	14232.88
522.702	13638.88
523.474	13063.88
524.245	12503.88
525.017	11965.88
525.788	11579.88
526.56	11028.88
527.331	10493.88
528.102	10081.88
528.873	9575.88
529.644	9107.88
530.415	8708.88
531.186	8245.88
531.957	7809.88
532.728	7398.88
533.498	7049.88
534.269	6645.88
535.039	6314.88
535.81	5957.88
536.58	5590.88
537.351	5303.88
538.121	4997.88
538.891	4750.88
539.661	4457.88
540.431	4232.88
541.201	4019.88
541.971	3780.88
542.741	3597.88
543.51	3405.88
544.28	3220.88
545.05	3085.88
545.819	2938.88
546.588	2791.88
547.358	2655.88
548.127	2518.88
548.896	2396.88
549.665	2281.88
550.434	2147.88
551.203	2039.88
551.972	1917.88
552.741	1816.88
553.51	1728.88
554.278	1629.88
555.047	1527.88
555.815	1453.88
556.584	1381.88
557.352	1299.88
558.121	1229.88
558.889	1145.88
559.657	1082.88
560.425	1032.88
561.193	961.88
561.961	919.88
562.729	873.88
563.496	818.88
564.264	769.88
565.032	727.88
565.799	701.88
566.567	647.88
567.334	617.88
568.101	588.88
568.869	556.88
569.636	519.88
570.403	486.88
571.17	457.88
571.937	431.88
572.704	409.88
573.471	384.88
574.237	362.88
575.004	346.88
575.771	324.88
576.537	299.88
577.303	286.88
578.07	271.88
578.836	253.88
579.602	237.88
580.368	227.88
581.134	213.88
581.9	200.88
582.666	191.88
583.432	180.88
584.198	173.88
584.964	159.88
585.729	154.88
586.495	147.88
587.26	141.88
588.025	136.88
588.791	122.88
589.556	114.88
590.321	116.88
591.086	107.88
591.851	101.88
592.616	92.88
593.381	92.88
594.146	89.88
594.911	84.88
595.675	80.88
596.44	79.88
597.204	71.88
597.969	67.88
598.733	65.88
599.497	64.88
600.261	59.88
601.025	58.88
601.79	53.88
602.553	49.88
603.317	49.88
604.081	46.88
604.845	48.88
605.609	43.88
606.372	42.88
607.136	41.88
607.899	38.88
608.662	39.88
609.426	35.88
610.189	33.88
610.952	31.88
611.715	32.88
612.478	31.88
613.241	28.88
614.004	27.88
614.767	27.88
615.529	26.88
616.292	25.88
617.055	25.88
617.817	22.88
618.579	24.88
619.342	22.88
620.104	17.88
620.866	21.88
621.628	20.88
622.39	19.88
623.152	21.88
623.914	16.88
624.676	17.88
625.438	14.88
626.199	14.88
626.961	15.88
627.722	14.88
628.484	16.88
629.245	11.88
630.006	15.88
630.768	13.88
631.529	10.88
632.29	12.88
633.051	11.88
633.812	11.88
634.573	10.88
635.333	12.88
636.094	9.88
636.855	10.88
637.615	10.88
638.376	8.88
639.136	8.88
639.896	9.88
640.657	10.88
641.417	10.88
642.177	10.88
642.937	8.88
643.697	7.88
644.457	8.88
645.216	6.88
645.976	8.88
646.736	8.88
647.495	7.88
648.255	7.88
649.014	7.88
649.774	5.88
650.533	8.88
651.292	8.88
652.051	4.88
652.81	6.88
653.569	6.88
654.328	5.88
655.087	4.88
655.846	5.88
656.604	4.88
657.363	6.88
658.121	5.88
658.88	3.88
659.638	6.88
660.397	5.88
661.155	5.88
661.913	3.88
662.671	4.88
663.429	2.88
664.187	4.88
664.945	6.88
665.703	4.88
666.46	4.88
667.218	5.88
667.976	5.88
668.733	5.88
669.49	3.88
670.248	3.88
671.005	2.88
671.762	3.88
672.519	4.88
673.276	6.88
674.033	4.88
674.79	2.88
675.547	4.88
676.304	4.88
677.06	5.88
677.817	4.88
678.574	6.88
679.33	3.88
680.086	3.88
680.843	3.88
681.599	3.88
682.355	6.88
683.111	1.88
683.867	2.88
684.623	2.88
685.379	3.88
686.135	3.88
686.89	4.88
687.646	2.88
688.402	3.88
689.157	4.88
689.912	2.88
690.668	3.88
691.423	3.88
692.178	2.88
692.933	1.88
693.688	3.88
694.443	4.88
695.198	1.88
695.953	2.88
696.708	2.88
697.462	3.88
698.217	3.88
698.972	1.88
699.726	2.88
700.48	3.88
701.235	1.88
701.989	4.88
702.743	2.88
703.497	2.88
704.251	0.88
705.005	4.88
705.759	3.88
706.513	2.88
707.266	3.88
708.02	4.88
708.774	3.88
709.527	1.88
710.28	3.88
711.034	2.88
711.787	2.88
712.54	3.88
713.293	2.88
714.046	1.88
714.799	4.88
715.552	3.88
716.305	4.88
717.058	3.88
717.81	1.88
718.563	4.88
719.315	2.88
720.068	3.88
720.82	4.88
721.573	4.88
722.325	2.88
723.077	5.88
723.829	4.88
724.581	2.88
725.333	3.88
726.085	0.88
726.836	3.88
727.588	3.88
728.34	4.88
729.091	3.88
729.843	4.88
730.594	4.88
731.346	0.88
732.097	4.88
732.848	3.88
733.599	2.88
734.35	4.88
735.101	1.88
735.852	2.88
736.603	3.88
737.354	4.88
738.104	6.88
738.855	6.88
739.605	4.88
740.356	3.88
741.106	5.88
741.856	4.88
742.607	3.88
743.357	3.88
744.107	4.88
744.857	4.88
745.607	3.88
746.357	5.88
747.106	5.88
747.856	1.88
748.606	6.88
749.355	5.88
750.105	4.88
750.854	5.88
751.603	3.88
752.353	5.88
753.102	6.88
753.851	5.88
754.6	7.88
755.349	5.88
756.098	6.88
756.847	6.88
757.595	7.88
758.344	5.88
759.093	4.88
759.841	6.88
760.589	5.88
761.338	5.88
762.086	5.88
762.834	4.88
763.582	7.88
764.331	6.88
765.079	7.88
765.826	5.88
766.574	4.88
767.322	5.88
768.07	5.88
768.817	5.88
769.565	6.88
770.312	7.88
771.06	5.88
771.807	4.88
772.554	6.88
773.302	8.88
774.049	6.88
774.796	8.88
775.543	6.88
776.29	6.88
777.036	10.88
777.783	7.88
778.53	9.88
779.276	9.88
780.023	5.88
780.769	6.88
781.516	10.88
782.262	10.88
783.008	8.88
783.754	8.88
784.5	8.88
785.246	6.88
785.992	9.88
786.738	5.88
787.484	9.88
788.23	8.88
788.975	7.88
789.721	6.88
790.466	9.88
791.212	8.88
791.957	8.88
792.702	10.88
793.447	8.88
794.193	7.88
794.938	7.88
795.683	5.88
796.427	9.88
797.172	9.88
797.917	7.88
798.662	8.88
799.406	7.88
800.151	7.88
800.895	6.88
801.64	5.88
802.384	7.88
803.128	5.88
803.872	6.88
804.616	6.88
805.36	9.88
806.104	6.88
806.848	4.88
807.592	7.88
808.336	6.88
809.079	4.88
809.823	4.88
810.566	6.88
811.31	5.88
812.053	2.88
812.796	4.88
813.539	5.88
814.283	6.88
815.026	5.88
815.769	4.88
816.511	4.88
817.254	4.88
817.997	5.88
818.74	2.88
819.482	5.88
820.225	5.88
820.967	3.88
821.71	4.88
822.452	3.88
823.194	4.88
823.936	3.88
824.678	4.88
825.42	6.88
826.162	5.88
826.904	3.88
827.646	3.88
828.388	5.88
829.129	2.88
829.871	6.88
830.612	3.88
831.354	3.88
832.095	3.88
832.836	3.88
833.577	2.88
834.319	3.88
835.06	3.88
835.801	4.88
836.542	2.88
837.282	4.88
838.023	4.88
838.764	3.88
839.504	4.88
840.245	1.88
840.985	6.88
841.726	3.88
842.466	1.88
843.206	1.88
843.946	1.88
844.687	3.88
845.427	4.88
846.166	1.88
846.906	3.88
847.646	1.88
848.386	4.88
849.125	0.88
849.865	5.88
850.605	1.88
851.344	2.88
852.083	-0.12
852.823	4.88
853.562	1.88
854.301	3.88
855.04	1.88
855.779	4.88
856.518	1.88
857.257	0.88
857.995	1.88
858.734	1.88
859.473	0.88
860.211	1.88
860.95	1.88
861.688	2.88
862.426	-0.12
863.165	1.88
863.903	1.88
864.641	0.88
865.379	2.88
866.117	1.88
866.855	1.88
867.593	1.88
868.33	1.88
869.068	2.88
869.806	-0.12
870.543	-0.12
871.28	1.88
872.018	2.88
872.755	1.88
873.492	0.88
874.229	0.88
874.967	1.88
875.703	3.88
876.44	0.88
877.177	0.88
877.914	1.88
878.651	-0.12
879.387	-1.12
880.124	1.88
880.86	-0.12
881.597	0.88
882.333	1.88
883.069	0.88
883.806	-0.12
884.542	0.88
885.278	-1.12
886.014	1.88
886.749	0.88
887.485	-0.12
888.221	2.88
888.957	-1.12
889.692	1.88
890.428	-0.12
891.163	0.88
891.899	-0.12
892.634	-1.12
893.369	-1.12
894.104	1.88
894.839	1.88
895.574	-0.12
896.309	0.88
897.044	0.88
897.779	0.88
898.514	-0.12
899.248	-0.12
899.983	1.88
900.717	0.88
901.452	-0.12
902.186	-2.12
902.92	-1.12
903.654	-0.12
904.389	0.88
905.123	-0.12
905.857	3.88
906.59	-1.12
907.324	-1.12
908.058	-0.12
908.792	-0.12
909.525	-0.12
910.259	0.88
910.992	-2.12
911.726	-0.12
912.459	0.88
913.192	0.88
913.925	1.88
914.658	3.88
915.391	-0.12
916.124	-1.12
916.857	-0.12
917.59	-0.12
918.323	0.88
919.055	0.88
919.788	1.88
920.521	0.88
921.253	-1.12
921.985	-2.12
922.718	-0.12
923.45	-0.12
924.182	0.88
924.914	-0.12
925.646	-1.12
926.378	1.88
927.11	-2.12
927.841	-0.12
928.573	-2.12
929.305	-0.12
930.036	0.88
930.768	-1.12
931.499	0.88
932.23	-1.12
932.962	0.88
933.693	0.88
934.424	1.88
935.155	-0.12
935.886	1.88
936.617	-0.12
937.348	-1.12
938.078	1.88
938.809	1.88
939.54	-0.12
940.27	0.88
941.001	-1.12
941.731	1.88
942.461	-1.12
943.191	0.88
943.922	1.88
944.652	2.88
945.382	-2.12
946.112	-0.12
946.841	1.88
947.571	-1.12
948.301	-0.12
949.031	-0.12
949.76	1.88
950.49	-1.12
951.219	-2.12
951.948	1.88
952.678	1.88
953.407	-2.12
954.136	1.88
954.865	-2.12
955.594	-0.12
956.323	-0.12
957.052	-1.12
957.78	0.88
958.509	-1.12
959.238	-0.12
959.966	-0.12
960.695	2.88
961.423	0.88
962.151	0.88
962.88	0.88
963.608	-0.12
964.336	-1.12
965.064	-1.12
965.792	2.88
966.52	-0.12
967.247	-0.12
967.975	-0.12
968.703	-2.12
969.43	0.88
970.158	-2.12
970.885	0.88
971.613	-0.12
972.34	1.88
973.067	-0.12
973.794	-1.12
974.521	0.88
975.248	0.88
975.975	0.88
976.702	0.88
977.429	-0.12
978.156	-2.12
978.882	-0.12
979.609	-1.12
980.335	0.88
981.062	-0.12
981.788	-0.12
982.514	-1.12
983.24	0.88
983.967	-2.12
984.693	-2.12
985.419	1.88
986.144	0.88
986.87	1.88
987.596	0.88
988.322	0.88
989.047	-0.12
989.773	0.88
990.498	-1.12
991.224	-0.12
991.949	1.88
992.674	-1.12
993.399	1.88
994.124	0.88
994.849	-1.12
995.574	1.88
996.299	0.88
997.024	-0.12
997.749	-1.12
998.473	0.88
999.198	-0.12
999.922	-2.12
1000.647	0.88
1001.371	3.88
1002.095	0.88
1002.82	-0.12
1003.544	-1.12
1004.268	1.88
1004.992	3.88
1005.716	1.88
1006.439	1.88
1007.163	2.88
1007.887	0.88
1008.611	0.88
1009.334	0.88
1010.058	0.88
1010.781	0.88
1011.504	1.88
1012.228	-0.12
1012.951	-2.12
1013.674	-1.12
1014.397	-0.12
1015.12	-0.12
