节点500_285_QEPB04081__234__14-59-26-969.txt的数据

Date: Wed Nov 12 14:59:26 CST 2025
User: PC
Spectrometer: QEPB0408
触发模式: 0
积分时间 (秒): 1.000000E-2
Scans to average: 1
启用暗噪声校正: true
启用非线性校正: false
滑动平均宽度: 0
X轴模式: Wavelengths
Number of Pixels in Spectrum: 1044
>>>>>Begin Spectral Data<<<<<
220.843	0
221.644	0
222.444	0
223.244	2
224.045	1
224.845	3
225.645	3
226.445	1
227.245	1
228.045	3
228.845	5
229.645	3
230.444	2
231.244	1
232.043	1
232.843	1
233.642	3
234.442	3
235.241	2
236.04	4
236.839	1
237.638	3
238.437	5
239.236	4
240.035	3
240.833	5
241.632	4
242.43	3
243.229	4
244.027	1
244.826	6
245.624	5
246.422	4
247.22	7
248.018	6
248.816	8
249.614	6
250.412	7
251.21	7
252.007	5
252.805	6
253.602	6
254.4	9
255.197	6
255.994	10
256.791	6
257.589	6
258.386	11
259.183	7
259.979	10
260.776	10
261.573	13
262.37	8
263.166	9
263.963	12
264.759	13
265.556	15
266.352	11
267.148	13
267.944	12
268.74	16
269.536	14
270.332	14
271.128	15
271.924	15
272.719	15
273.515	16
274.311	17
275.106	16
275.901	20
276.697	18
277.492	17
278.287	18
279.082	18
279.877	18
280.672	17
281.467	18
282.262	18
283.056	18
283.851	17
284.646	19
285.44	19
286.234	17
287.029	21
287.823	18
288.617	19
289.411	16
290.205	18
290.999	17
291.793	19
292.587	17
293.381	15
294.174	18
294.968	15
295.761	14
296.555	15
297.348	15
298.141	16
298.935	17
299.728	17
300.521	14
301.314	13
302.107	14
302.899	12
303.692	12
304.485	13
305.277	12
306.07	11
306.862	13
307.655	11
308.447	12
309.239	11
310.031	13
310.823	10
311.615	10
312.407	9
313.199	9
313.991	10
314.783	10
315.574	10
316.366	8
317.157	7
317.949	5
318.74	7
319.531	6
320.322	6
321.113	9
321.904	7
322.695	8
323.486	7
324.277	7
325.068	8
325.858	6
326.649	9
327.439	7
328.23	8
329.02	5
329.81	5
330.6	6
331.391	6
332.181	8
332.971	7
333.76	8
334.55	5
335.34	3
336.13	6
336.919	6
337.709	6
338.498	7
339.287	6
340.077	7
340.866	6
341.655	5
342.444	7
343.233	7
344.022	6
344.811	4
345.6	5
346.388	6
347.177	5
347.965	5
348.754	5
349.542	7
350.33	5
351.119	4
351.907	5
352.695	7
353.483	5
354.271	7
355.059	6
355.846	4
356.634	6
357.422	4
358.209	5
358.997	4
359.784	4
360.571	4
361.359	4
362.146	4
362.933	2
363.72	7
364.507	6
365.294	6
366.081	6
366.867	6
367.654	4
368.44	5
369.227	2
370.013	5
370.8	4
371.586	5
372.372	5
373.158	5
373.944	6
374.73	3
375.516	8
376.302	2
377.088	5
377.873	4
378.659	3
379.445	6
380.23	4
381.015	4
381.801	4
382.586	7
383.371	6
384.156	3
384.941	5
385.726	5
386.511	3
387.296	5
388.08	4
388.865	4
389.649	6
390.434	6
391.218	5
392.003	3
392.787	4
393.571	6
394.355	6
395.139	6
395.923	4
396.707	7
397.491	6
398.274	6
399.058	8
399.842	6
400.625	8
401.408	6
402.192	7
402.975	5
403.758	9
404.541	7
405.324	6
406.107	7
406.89	7
407.673	7
408.456	8
409.238	8
410.021	9
410.803	9
411.586	8
412.368	8
413.151	7
413.933	8
414.715	8
415.497	7
416.279	9
417.061	10
417.843	8
418.624	11
419.406	6
420.188	9
420.969	10
421.751	10
422.532	11
423.313	11
424.095	12
424.876	10
425.657	12
426.438	13
427.219	12
428	12
428.78	12
429.561	13
430.342	11
431.122	13
431.903	14
432.683	17
433.464	17
434.244	16
435.024	16
435.804	18
436.584	15
437.364	22
438.144	20
438.924	20
439.704	20
440.483	22
441.263	21
442.042	25
442.822	25
443.601	25
444.38	26
445.16	29
445.939	34
446.718	35
447.497	39
448.276	40
449.054	43
449.833	45
450.612	54
451.391	54
452.169	60
452.948	65
453.726	75
454.504	80
455.282	89
456.061	97
456.839	109
457.617	117
458.395	131
459.172	148
459.95	159
460.728	187
461.506	197
462.283	224
463.061	251
463.838	277
464.615	314
465.393	359
466.17	399
466.947	436
467.724	481
468.501	546
469.278	615
470.055	681
470.831	754
471.608	841
472.385	941
473.161	1039
473.938	1152
474.714	1287
475.49	1419
476.266	1559
477.043	1727
477.819	1903
478.595	2117
479.371	2337
480.146	2589
480.922	2871
481.698	3149
482.473	3503
483.249	3841
484.024	4227
484.8	4686
485.575	5128
486.35	5664
487.126	6230
487.901	6853
488.676	7502
489.451	8197
490.225	9002
491	9889
491.775	10786
492.55	11754
493.324	12750
494.099	13716
494.873	14854
495.647	15983
496.422	17234
497.196	18361
497.97	19644
498.744	20858
499.518	22032
500.292	23196
501.066	24327
501.839	25240
502.613	26117
503.387	26892
504.16	27493
504.934	27836
505.707	27926
506.48	27879
507.253	27712
508.027	27454
508.8	27075
509.573	26558
510.346	25973
511.118	25088
511.891	24204
512.664	23408
513.437	22451
514.209	21476
514.982	20589
515.754	19677
516.526	18816
517.298	17988
518.071	17176
518.843	16500
519.615	15875
520.387	15265
521.159	14652
521.93	14059
522.702	13518
523.474	12936
524.245	12358
525.017	11863
525.788	11348
526.56	10897
527.331	10352
528.102	9881
528.873	9404
529.644	8960
530.415	8488
531.186	8082
531.957	7632
532.728	7262
533.498	6854
534.269	6478
535.039	6109
535.81	5791
536.58	5442
537.351	5123
538.121	4857
538.891	4608
539.661	4361
540.431	4094
541.201	3911
541.971	3662
542.741	3495
543.51	3314
544.28	3159
545.05	3006
545.819	2837
546.588	2700
547.358	2556
548.127	2435
548.896	2315
549.665	2188
550.434	2083
551.203	1958
551.972	1882
552.741	1753
553.51	1673
554.278	1575
555.047	1479
555.815	1399
556.584	1323
557.352	1237
558.121	1170
558.889	1113
559.657	1061
560.425	996
561.193	923
561.961	884
562.729	845
563.496	780
564.264	743
565.032	693
565.799	663
566.567	623
567.334	591
568.101	556
568.869	531
569.636	499
570.403	465
571.17	444
571.937	412
572.704	398
573.471	373
574.237	356
575.004	330
575.771	308
576.537	298
577.303	278
578.07	263
578.836	241
579.602	227
580.368	217
581.134	203
581.9	200
582.666	181
583.432	177
584.198	165
584.964	154
585.729	155
586.495	141
587.26	136
588.025	130
588.791	121
589.556	118
590.321	109
591.086	100
591.851	96
592.616	93
593.381	87
594.146	81
594.911	83
595.675	80
596.44	74
597.204	71
597.969	64
598.733	66
599.497	63
600.261	58
601.025	56
601.79	57
602.553	50
603.317	49
604.081	46
604.845	43
605.609	43
606.372	39
607.136	38
607.899	37
608.662	38
609.426	35
610.189	34
610.952	31
611.715	30
612.478	25
613.241	29
614.004	26
614.767	25
615.529	24
616.292	22
617.055	21
617.817	21
618.579	24
619.342	20
620.104	18
620.866	20
621.628	20
622.39	18
623.152	17
623.914	16
624.676	17
625.438	17
626.199	14
626.961	15
627.722	14
628.484	15
629.245	14
630.006	13
630.768	13
631.529	13
632.29	15
633.051	12
633.812	12
634.573	14
635.333	9
636.094	9
636.855	7
637.615	9
638.376	8
639.136	11
639.896	9
640.657	9
641.417	9
642.177	9
642.937	8
643.697	6
644.457	7
645.216	8
645.976	8
646.736	7
647.495	7
648.255	7
649.014	6
649.774	7
650.533	8
651.292	4
652.051	5
652.81	8
653.569	4
654.328	7
655.087	5
655.846	4
656.604	6
657.363	5
658.121	5
658.88	5
659.638	7
660.397	7
661.155	5
661.913	7
662.671	4
663.429	4
664.187	4
664.945	5
665.703	4
666.46	2
667.218	5
667.976	5
668.733	4
669.49	4
670.248	3
671.005	2
671.762	3
672.519	5
673.276	5
674.033	4
674.79	3
675.547	4
676.304	2
677.06	3
677.817	3
678.574	4
679.33	3
680.086	8
680.843	1
681.599	5
682.355	1
683.111	3
683.867	3
684.623	4
685.379	3
686.135	3
686.89	5
687.646	4
688.402	3
689.157	3
689.912	4
690.668	3
691.423	2
692.178	2
692.933	0
693.688	2
694.443	4
695.198	3
695.953	4
696.708	6
697.462	3
698.217	6
698.972	2
699.726	3
700.48	3
701.235	3
701.989	1
702.743	3
703.497	4
704.251	2
705.005	4
705.759	3
706.513	3
707.266	4
708.02	1
708.774	4
709.527	1
710.28	5
711.034	3
711.787	4
712.54	1
713.293	2
714.046	2
714.799	2
715.552	5
716.305	4
717.058	3
717.81	4
718.563	1
719.315	5
720.068	4
720.82	3
721.573	3
722.325	1
723.077	3
723.829	4
724.581	5
725.333	4
726.085	3
726.836	2
727.588	3
728.34	3
729.091	4
729.843	3
730.594	5
731.346	3
732.097	4
732.848	1
733.599	4
734.35	3
735.101	2
735.852	3
736.603	3
737.354	6
738.104	6
738.855	4
739.605	3
740.356	4
741.106	4
741.856	6
742.607	5
743.357	5
744.107	5
744.857	4
745.607	4
746.357	5
747.106	1
747.856	3
748.606	5
749.355	4
750.105	3
750.854	2
751.603	7
752.353	5
753.102	4
753.851	6
754.6	6
755.349	7
756.098	6
756.847	4
757.595	6
758.344	3
759.093	5
759.841	3
760.589	6
761.338	5
762.086	4
762.834	4
763.582	5
764.331	8
765.079	5
765.826	5
766.574	7
767.322	6
768.07	9
768.817	7
769.565	6
770.312	7
771.06	6
771.807	7
772.554	6
773.302	8
774.049	6
774.796	7
775.543	8
776.29	9
777.036	8
777.783	10
778.53	7
779.276	9
780.023	9
780.769	9
781.516	5
782.262	9
783.008	9
783.754	9
784.5	9
785.246	7
785.992	7
786.738	8
787.484	12
788.23	9
788.975	8
789.721	5
790.466	7
791.212	8
791.957	6
792.702	8
793.447	8
794.193	10
794.938	8
795.683	10
796.427	9
797.172	8
797.917	7
798.662	6
799.406	7
800.151	8
800.895	6
801.64	5
802.384	5
803.128	5
803.872	5
804.616	5
805.36	7
806.104	5
806.848	5
807.592	5
808.336	4
809.079	5
809.823	3
810.566	5
811.31	5
812.053	6
812.796	6
813.539	5
814.283	5
815.026	5
815.769	4
816.511	4
817.254	4
817.997	6
818.74	4
819.482	7
820.225	3
820.967	5
821.71	4
822.452	2
823.194	6
823.936	4
824.678	4
825.42	3
826.162	4
826.904	3
827.646	3
828.388	5
829.129	3
829.871	2
830.612	3
831.354	3
832.095	1
832.836	3
833.577	4
834.319	4
835.06	4
835.801	4
836.542	2
837.282	3
838.023	2
838.764	5
839.504	3
840.245	2
840.985	5
841.726	3
842.466	4
843.206	5
843.946	3
844.687	2
845.427	0
846.166	3
846.906	1
847.646	4
848.386	2
849.125	0
849.865	2
850.605	1
851.344	5
852.083	1
852.823	1
853.562	1
854.301	1
855.04	2
855.779	2
856.518	3
857.257	2
857.995	2
858.734	3
859.473	1
860.211	2
860.95	1
861.688	-1
862.426	3
863.165	2
863.903	1
864.641	3
865.379	1
866.117	0
866.855	2
867.593	2
868.33	3
869.068	2
869.806	0
870.543	0
871.28	2
872.018	1
872.755	0
873.492	-2
874.229	2
874.967	1
875.703	3
876.44	2
877.177	0
877.914	0
878.651	2
879.387	-1
880.124	1
880.86	-1
881.597	1
882.333	0
883.069	-1
883.806	-1
884.542	0
885.278	0
886.014	2
886.749	2
887.485	1
888.221	-1
888.957	1
889.692	0
890.428	-1
891.163	-1
891.899	0
892.634	1
893.369	2
894.104	0
894.839	-1
895.574	1
896.309	-1
897.044	0
897.779	1
898.514	-1
899.248	-1
899.983	0
900.717	2
901.452	-2
902.186	1
902.92	-1
903.654	1
904.389	1
905.123	1
905.857	1
906.59	-2
907.324	0
908.058	-2
908.792	1
909.525	1
910.259	-1
910.992	3
911.726	-1
912.459	1
913.192	0
913.925	0
914.658	-1
915.391	-1
916.124	0
916.857	-4
917.59	0
918.323	0
919.055	2
919.788	-1
920.521	-1
921.253	-1
921.985	0
922.718	0
923.45	1
924.182	0
924.914	-1
925.646	-1
926.378	1
927.11	2
927.841	3
928.573	0
929.305	-1
930.036	-2
930.768	1
931.499	1
932.23	-1
932.962	-1
933.693	1
934.424	-2
935.155	0
935.886	0
936.617	-1
937.348	1
938.078	-2
938.809	-2
939.54	-1
940.27	-1
941.001	0
941.731	0
942.461	1
943.191	-2
943.922	1
944.652	-2
945.382	1
946.112	0
946.841	-1
947.571	0
948.301	1
949.031	0
949.76	0
950.49	-1
951.219	-1
951.948	-1
952.678	0
953.407	-1
954.136	-1
954.865	-2
955.594	1
956.323	0
957.052	0
957.78	2
958.509	1
959.238	1
959.966	0
960.695	0
961.423	0
962.151	0
962.88	-2
963.608	0
964.336	1
965.064	-1
965.792	-1
966.52	-2
967.247	0
967.975	-1
968.703	0
969.43	-1
970.158	0
970.885	-2
971.613	-1
972.34	-3
973.067	-2
973.794	2
974.521	-1
975.248	-1
975.975	0
976.702	-1
977.429	2
978.156	1
978.882	-1
979.609	2
980.335	-1
981.062	-1
981.788	1
982.514	-2
983.24	-1
983.967	-1
984.693	-1
985.419	0
986.144	0
986.87	-2
987.596	-2
988.322	-1
989.047	0
989.773	0
990.498	-2
991.224	2
991.949	-1
992.674	1
993.399	0
994.124	0
994.849	-2
995.574	-1
996.299	2
997.024	-1
997.749	-2
998.473	0
999.198	-1
999.922	0
1000.647	-1
1001.371	3
1002.095	-1
1002.82	0
1003.544	-3
1004.268	2
1004.992	-1
1005.716	1
1006.439	1
1007.163	0
1007.887	2
1008.611	1
1009.334	-1
1010.058	0
1010.781	2
1011.504	-1
1012.228	0
1012.951	1
1013.674	0
1014.397	1
1015.12	-1
