节点500_285_QEPB04081__709__15-07-20-807.txt的数据

Date: Wed Nov 12 15:07:20 CST 2025
User: PC
Spectrometer: QEPB0408
触发模式: 0
积分时间 (秒): 1.000000E-2
Scans to average: 1
启用暗噪声校正: true
启用非线性校正: false
滑动平均宽度: 0
X轴模式: Wavelengths
Number of Pixels in Spectrum: 1044
>>>>>Begin Spectral Data<<<<<
220.843	2.12
221.644	2.12
222.444	2.12
223.244	2.12
224.045	1.12
224.845	0.12
225.645	1.12
226.445	1.12
227.245	3.12
228.045	2.12
228.845	0.12
229.645	2.12
230.444	2.12
231.244	3.12
232.043	2.12
232.843	2.12
233.642	6.12
234.442	5.12
235.241	5.12
236.04	3.12
236.839	4.12
237.638	7.12
238.437	7.12
239.236	5.12
240.035	5.12
240.833	2.12
241.632	4.12
242.43	3.12
243.229	5.12
244.027	4.12
244.826	5.12
245.624	4.12
246.422	4.12
247.22	5.12
248.018	6.12
248.816	5.12
249.614	2.12
250.412	5.12
251.21	6.12
252.007	4.12
252.805	8.12
253.602	8.12
254.4	6.12
255.197	7.12
255.994	7.12
256.791	7.12
257.589	8.12
258.386	8.12
259.183	7.12
259.979	9.12
260.776	8.12
261.573	9.12
262.37	11.12
263.166	10.12
263.963	10.12
264.759	10.12
265.556	10.12
266.352	11.12
267.148	11.12
267.944	11.12
268.74	11.12
269.536	13.12
270.332	14.12
271.128	10.12
271.924	15.12
272.719	16.12
273.515	17.12
274.311	14.12
275.106	15.12
275.901	15.12
276.697	17.12
277.492	14.12
278.287	14.12
279.082	19.12
279.877	17.12
280.672	16.12
281.467	19.12
282.262	16.12
283.056	18.12
283.851	20.12
284.646	17.12
285.44	15.12
286.234	21.12
287.029	18.12
287.823	19.12
288.617	19.12
289.411	16.12
290.205	16.12
290.999	16.12
291.793	16.12
292.587	18.12
293.381	15.12
294.174	17.12
294.968	16.12
295.761	16.12
296.555	13.12
297.348	14.12
298.141	14.12
298.935	15.12
299.728	14.12
300.521	12.12
301.314	12.12
302.107	13.12
302.899	15.12
303.692	12.12
304.485	12.12
305.277	13.12
306.07	14.12
306.862	13.12
307.655	14.12
308.447	14.12
309.239	12.12
310.031	10.12
310.823	10.12
311.615	10.12
312.407	9.12
313.199	10.12
313.991	10.12
314.783	7.12
315.574	13.12
316.366	8.12
317.157	9.12
317.949	7.12
318.74	9.12
319.531	7.12
320.322	8.12
321.113	9.12
321.904	10.12
322.695	9.12
323.486	6.12
324.277	10.12
325.068	7.12
325.858	7.12
326.649	7.12
327.439	7.12
328.23	7.12
329.02	9.12
329.81	7.12
330.6	7.12
331.391	6.12
332.181	6.12
332.971	4.12
333.76	8.12
334.55	5.12
335.34	6.12
336.13	8.12
336.919	6.12
337.709	4.12
338.498	6.12
339.287	7.12
340.077	8.12
340.866	6.12
341.655	5.12
342.444	5.12
343.233	8.12
344.022	6.12
344.811	6.12
345.6	7.12
346.388	5.12
347.177	7.12
347.965	7.12
348.754	7.12
349.542	4.12
350.33	6.12
351.119	7.12
351.907	5.12
352.695	8.12
353.483	3.12
354.271	5.12
355.059	7.12
355.846	6.12
356.634	5.12
357.422	4.12
358.209	6.12
358.997	4.12
359.784	8.12
360.571	5.12
361.359	4.12
362.146	7.12
362.933	4.12
363.72	5.12
364.507	4.12
365.294	5.12
366.081	5.12
366.867	4.12
367.654	5.12
368.44	2.12
369.227	5.12
370.013	5.12
370.8	7.12
371.586	5.12
372.372	7.12
373.158	4.12
373.944	4.12
374.73	7.12
375.516	5.12
376.302	4.12
377.088	4.12
377.873	5.12
378.659	7.12
379.445	3.12
380.23	5.12
381.015	3.12
381.801	5.12
382.586	7.12
383.371	5.12
384.156	3.12
384.941	5.12
385.726	6.12
386.511	7.12
387.296	7.12
388.08	4.12
388.865	5.12
389.649	8.12
390.434	2.12
391.218	5.12
392.003	8.12
392.787	4.12
393.571	7.12
394.355	5.12
395.139	7.12
395.923	4.12
396.707	8.12
397.491	4.12
398.274	6.12
399.058	7.12
399.842	4.12
400.625	9.12
401.408	8.12
402.192	6.12
402.975	10.12
403.758	4.12
404.541	7.12
405.324	6.12
406.107	9.12
406.89	6.12
407.673	4.12
408.456	7.12
409.238	6.12
410.021	8.12
410.803	7.12
411.586	7.12
412.368	7.12
413.151	5.12
413.933	9.12
414.715	6.12
415.497	11.12
416.279	7.12
417.061	9.12
417.843	7.12
418.624	10.12
419.406	9.12
420.188	9.12
420.969	13.12
421.751	8.12
422.532	10.12
423.313	11.12
424.095	10.12
424.876	11.12
425.657	10.12
426.438	13.12
427.219	14.12
428	12.12
428.78	12.12
429.561	11.12
430.342	15.12
431.122	14.12
431.903	16.12
432.683	14.12
433.464	13.12
434.244	14.12
435.024	16.12
435.804	17.12
436.584	17.12
437.364	20.12
438.144	22.12
438.924	22.12
439.704	22.12
440.483	20.12
441.263	21.12
442.042	25.12
442.822	29.12
443.601	29.12
444.38	30.12
445.16	32.12
445.939	34.12
446.718	39.12
447.497	38.12
448.276	44.12
449.054	51.12
449.833	53.12
450.612	52.12
451.391	61.12
452.169	67.12
452.948	74.12
453.726	83.12
454.504	90.12
455.282	99.12
456.061	113.12
456.839	120.12
457.617	137.12
458.395	154.12
459.172	169.12
459.95	185.12
460.728	209.12
461.506	226.12
462.283	261.12
463.061	289.12
463.838	318.12
464.615	346.12
465.393	394.12
466.17	440.12
466.947	483.12
467.724	536.12
468.501	588.12
469.278	661.12
470.055	728.12
470.831	819.12
471.608	905.12
472.385	990.12
473.161	1106.12
473.938	1207.12
474.714	1330.12
475.49	1458.12
476.266	1603.12
477.043	1784.12
477.819	1933.12
478.595	2120.12
479.371	2327.12
480.146	2565.12
480.922	2802.12
481.698	3066.12
482.473	3332.12
483.249	3641.12
484.024	3993.12
484.8	4369.12
485.575	4781.12
486.35	5201.12
487.126	5700.12
487.901	6194.12
488.676	6682.12
489.451	7300.12
490.225	7978.12
491	8644.12
491.775	9436.12
492.55	10210.12
493.324	11028.12
494.099	11817.12
494.873	12717.12
495.647	13672.12
496.422	14704.12
497.196	15687.12
497.97	16756.12
498.744	17785.12
499.518	18868.12
500.292	19852.12
501.066	20880.12
501.839	21834.12
502.613	22744.12
503.387	23519.12
504.16	24236.12
504.934	24712.12
505.707	25042.12
506.48	25247.12
507.253	25408.12
508.027	25421.12
508.8	25307.12
509.573	25112.12
510.346	24781.12
511.118	24165.12
511.891	23625.12
512.664	22963.12
513.437	22280.12
514.209	21459.12
514.982	20680.12
515.754	19834.12
516.526	19071.12
517.298	18280.12
518.071	17540.12
518.843	16894.12
519.615	16253.12
520.387	15654.12
521.159	15001.12
521.93	14380.12
522.702	13820.12
523.474	13239.12
524.245	12710.12
525.017	12154.12
525.788	11726.12
526.56	11205.12
527.331	10693.12
528.102	10250.12
528.873	9788.12
529.644	9336.12
530.415	8905.12
531.186	8447.12
531.957	8040.12
532.728	7693.12
533.498	7294.12
534.269	6880.12
535.039	6552.12
535.81	6205.12
536.58	5854.12
537.351	5526.12
538.121	5207.12
538.891	4962.12
539.661	4676.12
540.431	4396.12
541.201	4172.12
541.971	3969.12
542.741	3736.12
543.51	3573.12
544.28	3386.12
545.05	3230.12
545.819	3060.12
546.588	2910.12
547.358	2764.12
548.127	2630.12
548.896	2509.12
549.665	2365.12
550.434	2244.12
551.203	2125.12
551.972	2021.12
552.741	1915.12
553.51	1811.12
554.278	1717.12
555.047	1632.12
555.815	1535.12
556.584	1437.12
557.352	1386.12
558.121	1292.12
558.889	1221.12
559.657	1156.12
560.425	1090.12
561.193	1026.12
561.961	977.12
562.729	923.12
563.496	876.12
564.264	821.12
565.032	787.12
565.799	737.12
566.567	698.12
567.334	657.12
568.101	618.12
568.869	576.12
569.636	549.12
570.403	523.12
571.17	481.12
571.937	457.12
572.704	435.12
573.471	402.12
574.237	386.12
575.004	364.12
575.771	349.12
576.537	320.12
577.303	312.12
578.07	289.12
578.836	276.12
579.602	250.12
580.368	240.12
581.134	230.12
581.9	220.12
582.666	207.12
583.432	192.12
584.198	188.12
584.964	174.12
585.729	166.12
586.495	157.12
587.26	149.12
588.025	142.12
588.791	132.12
589.556	124.12
590.321	123.12
591.086	114.12
591.851	108.12
592.616	103.12
593.381	100.12
594.146	93.12
594.911	93.12
595.675	82.12
596.44	78.12
597.204	76.12
597.969	74.12
598.733	68.12
599.497	70.12
600.261	61.12
601.025	60.12
601.79	60.12
602.553	55.12
603.317	53.12
604.081	51.12
604.845	48.12
605.609	45.12
606.372	41.12
607.136	41.12
607.899	43.12
608.662	42.12
609.426	35.12
610.189	38.12
610.952	34.12
611.715	34.12
612.478	28.12
613.241	31.12
614.004	32.12
614.767	30.12
615.529	28.12
616.292	23.12
617.055	29.12
617.817	26.12
618.579	24.12
619.342	22.12
620.104	23.12
620.866	23.12
621.628	22.12
622.39	22.12
623.152	24.12
623.914	21.12
624.676	16.12
625.438	17.12
626.199	18.12
626.961	17.12
627.722	16.12
628.484	15.12
629.245	14.12
630.006	15.12
630.768	14.12
631.529	15.12
632.29	11.12
633.051	13.12
633.812	12.12
634.573	12.12
635.333	12.12
636.094	10.12
636.855	8.12
637.615	13.12
638.376	9.12
639.136	8.12
639.896	10.12
640.657	9.12
641.417	10.12
642.177	13.12
642.937	10.12
643.697	11.12
644.457	9.12
645.216	10.12
645.976	7.12
646.736	12.12
647.495	8.12
648.255	8.12
649.014	9.12
649.774	6.12
650.533	8.12
651.292	6.12
652.051	7.12
652.81	7.12
653.569	9.12
654.328	8.12
655.087	7.12
655.846	7.12
656.604	8.12
657.363	5.12
658.121	7.12
658.88	7.12
659.638	5.12
660.397	7.12
661.155	6.12
661.913	7.12
662.671	3.12
663.429	6.12
664.187	7.12
664.945	5.12
665.703	7.12
666.46	3.12
667.218	6.12
667.976	4.12
668.733	3.12
669.49	2.12
670.248	6.12
671.005	6.12
671.762	5.12
672.519	5.12
673.276	3.12
674.033	5.12
674.79	4.12
675.547	3.12
676.304	4.12
677.06	4.12
677.817	4.12
678.574	6.12
679.33	4.12
680.086	4.12
680.843	6.12
681.599	7.12
682.355	1.12
683.111	2.12
683.867	4.12
684.623	6.12
685.379	3.12
686.135	4.12
686.89	4.12
687.646	4.12
688.402	3.12
689.157	3.12
689.912	4.12
690.668	5.12
691.423	4.12
692.178	3.12
692.933	4.12
693.688	5.12
694.443	1.12
695.198	2.12
695.953	4.12
696.708	0.12
697.462	2.12
698.217	3.12
698.972	3.12
699.726	4.12
700.48	3.12
701.235	5.12
701.989	3.12
702.743	4.12
703.497	2.12
704.251	3.12
705.005	4.12
705.759	4.12
706.513	2.12
707.266	2.12
708.02	4.12
708.774	3.12
709.527	2.12
710.28	7.12
711.034	2.12
711.787	2.12
712.54	5.12
713.293	4.12
714.046	3.12
714.799	3.12
715.552	4.12
716.305	1.12
717.058	3.12
717.81	2.12
718.563	4.12
719.315	2.12
720.068	5.12
720.82	4.12
721.573	4.12
722.325	5.12
723.077	3.12
723.829	4.12
724.581	5.12
725.333	3.12
726.085	2.12
726.836	2.12
727.588	3.12
728.34	4.12
729.091	1.12
729.843	5.12
730.594	5.12
731.346	5.12
732.097	5.12
732.848	2.12
733.599	4.12
734.35	3.12
735.101	5.12
735.852	4.12
736.603	5.12
737.354	6.12
738.104	5.12
738.855	6.12
739.605	4.12
740.356	5.12
741.106	2.12
741.856	8.12
742.607	5.12
743.357	3.12
744.107	3.12
744.857	5.12
745.607	6.12
746.357	2.12
747.106	4.12
747.856	3.12
748.606	5.12
749.355	5.12
750.105	4.12
750.854	3.12
751.603	4.12
752.353	6.12
753.102	3.12
753.851	5.12
754.6	6.12
755.349	4.12
756.098	5.12
756.847	5.12
757.595	6.12
758.344	7.12
759.093	5.12
759.841	5.12
760.589	6.12
761.338	6.12
762.086	5.12
762.834	4.12
763.582	7.12
764.331	6.12
765.079	6.12
765.826	5.12
766.574	6.12
767.322	6.12
768.07	7.12
768.817	6.12
769.565	5.12
770.312	8.12
771.06	5.12
771.807	9.12
772.554	6.12
773.302	5.12
774.049	8.12
774.796	6.12
775.543	6.12
776.29	7.12
777.036	8.12
777.783	6.12
778.53	9.12
779.276	8.12
780.023	10.12
780.769	10.12
781.516	9.12
782.262	7.12
783.008	6.12
783.754	8.12
784.5	9.12
785.246	9.12
785.992	7.12
786.738	8.12
787.484	7.12
788.23	9.12
788.975	8.12
789.721	9.12
790.466	8.12
791.212	9.12
791.957	9.12
792.702	8.12
793.447	5.12
794.193	7.12
794.938	8.12
795.683	10.12
796.427	5.12
797.172	8.12
797.917	7.12
798.662	9.12
799.406	4.12
800.151	10.12
800.895	7.12
801.64	5.12
802.384	8.12
803.128	6.12
803.872	8.12
804.616	5.12
805.36	7.12
806.104	9.12
806.848	7.12
807.592	5.12
808.336	5.12
809.079	8.12
809.823	2.12
810.566	6.12
811.31	7.12
812.053	7.12
812.796	5.12
813.539	5.12
814.283	5.12
815.026	2.12
815.769	6.12
816.511	5.12
817.254	3.12
817.997	4.12
818.74	4.12
819.482	5.12
820.225	5.12
820.967	4.12
821.71	5.12
822.452	3.12
823.194	4.12
823.936	5.12
824.678	6.12
825.42	5.12
826.162	3.12
826.904	5.12
827.646	5.12
828.388	5.12
829.129	1.12
829.871	3.12
830.612	4.12
831.354	3.12
832.095	6.12
832.836	4.12
833.577	2.12
834.319	3.12
835.06	2.12
835.801	4.12
836.542	1.12
837.282	4.12
838.023	3.12
838.764	5.12
839.504	3.12
840.245	4.12
840.985	5.12
841.726	4.12
842.466	5.12
843.206	3.12
843.946	1.12
844.687	5.12
845.427	4.12
846.166	3.12
846.906	4.12
847.646	4.12
848.386	3.12
849.125	4.12
849.865	3.12
850.605	1.12
851.344	3.12
852.083	3.12
852.823	4.12
853.562	3.12
854.301	2.12
855.04	2.12
855.779	1.12
856.518	2.12
857.257	-0.88
857.995	3.12
858.734	3.12
859.473	1.12
860.211	3.12
860.95	4.12
861.688	1.12
862.426	3.12
863.165	4.12
863.903	1.12
864.641	2.12
865.379	3.12
866.117	1.12
866.855	3.12
867.593	4.12
868.33	1.12
869.068	0.12
869.806	1.12
870.543	2.12
871.28	1.12
872.018	3.12
872.755	4.12
873.492	4.12
874.229	1.12
874.967	2.12
875.703	2.12
876.44	1.12
877.177	1.12
877.914	2.12
878.651	0.12
879.387	0.12
880.124	1.12
880.86	2.12
881.597	1.12
882.333	-0.88
883.069	0.12
883.806	0.12
884.542	1.12
885.278	0.12
886.014	-0.88
886.749	1.12
887.485	0.12
888.221	0.12
888.957	0.12
889.692	2.12
890.428	2.12
891.163	0.12
891.899	-1.88
892.634	0.12
893.369	4.12
894.104	0.12
894.839	1.12
895.574	-0.88
896.309	1.12
897.044	1.12
897.779	1.12
898.514	1.12
899.248	0.12
899.983	1.12
900.717	-0.88
901.452	3.12
902.186	2.12
902.92	1.12
903.654	1.12
904.389	-3.88
905.123	-0.88
905.857	1.12
906.59	1.12
907.324	2.12
908.058	2.12
908.792	2.12
909.525	0.12
910.259	-1.88
910.992	0.12
911.726	1.12
912.459	1.12
913.192	0.12
913.925	-0.88
914.658	-0.88
915.391	0.12
916.124	0.12
916.857	0.12
917.59	0.12
918.323	0.12
919.055	2.12
919.788	2.12
920.521	2.12
921.253	-1.88
921.985	-1.88
922.718	1.12
923.45	0.12
924.182	0.12
924.914	-0.88
925.646	0.12
926.378	1.12
927.11	0.12
927.841	-0.88
928.573	0.12
929.305	0.12
930.036	2.12
930.768	-0.88
931.499	0.12
932.23	1.12
932.962	2.12
933.693	0.12
934.424	-0.88
935.155	1.12
935.886	-0.88
936.617	0.12
937.348	2.12
938.078	2.12
938.809	1.12
939.54	-1.88
940.27	0.12
941.001	-1.88
941.731	2.12
942.461	0.12
943.191	1.12
943.922	-0.88
944.652	-1.88
945.382	0.12
946.112	1.12
946.841	0.12
947.571	-1.88
948.301	-0.88
949.031	0.12
949.76	-1.88
950.49	0.12
951.219	2.12
951.948	-1.88
952.678	1.12
953.407	2.12
954.136	-0.88
954.865	1.12
955.594	2.12
956.323	1.12
957.052	0.12
957.78	2.12
958.509	1.12
959.238	0.12
959.966	-0.88
960.695	-0.88
961.423	-0.88
962.151	-0.88
962.88	-0.88
963.608	1.12
964.336	0.12
965.064	-1.88
965.792	1.12
966.52	2.12
967.247	2.12
967.975	2.12
968.703	-1.88
969.43	0.12
970.158	0.12
970.885	0.12
971.613	1.12
972.34	-0.88
973.067	-1.88
973.794	-0.88
974.521	1.12
975.248	-0.88
975.975	1.12
976.702	1.12
977.429	-1.88
978.156	1.12
978.882	2.12
979.609	-1.88
980.335	1.12
981.062	1.12
981.788	0.12
982.514	0.12
983.24	1.12
983.967	2.12
984.693	1.12
985.419	1.12
986.144	0.12
986.87	2.12
987.596	-1.88
988.322	2.12
989.047	-1.88
989.773	-0.88
990.498	0.12
991.224	0.12
991.949	2.12
992.674	-0.88
993.399	1.12
994.124	1.12
994.849	1.12
995.574	0.12
996.299	-0.88
997.024	3.12
997.749	0.12
998.473	2.12
999.198	0.12
999.922	-0.88
1000.647	1.12
1001.371	2.12
1002.095	1.12
1002.82	-1.88
1003.544	-1.88
1004.268	0.12
1004.992	2.12
1005.716	1.12
1006.439	2.12
1007.163	0.12
1007.887	1.12
1008.611	2.12
1009.334	2.12
1010.058	-0.88
1010.781	2.12
1011.504	4.12
1012.228	-1.88
1012.951	0.12
1013.674	-0.88
1014.397	1.12
1015.12	0.12
