节点500_285_QEPB04081__453__15-03-05-547.txt的数据

Date: Wed Nov 12 15:03:05 CST 2025
User: PC
Spectrometer: QEPB0408
触发模式: 0
积分时间 (秒): 1.000000E-2
Scans to average: 1
启用暗噪声校正: true
启用非线性校正: false
滑动平均宽度: 0
X轴模式: Wavelengths
Number of Pixels in Spectrum: 1044
>>>>>Begin Spectral Data<<<<<
220.843	3.62
221.644	2.62
222.444	1.62
223.244	1.62
224.045	2.62
224.845	1.62
225.645	5.62
226.445	2.62
227.245	3.62
228.045	3.62
228.845	3.62
229.645	2.62
230.444	2.62
231.244	2.62
232.043	2.62
232.843	2.62
233.642	4.62
234.442	2.62
235.241	5.62
236.04	4.62
236.839	4.62
237.638	5.62
238.437	3.62
239.236	3.62
240.035	4.62
240.833	3.62
241.632	6.62
242.43	8.62
243.229	5.62
244.027	3.62
244.826	3.62
245.624	4.62
246.422	6.62
247.22	6.62
248.018	5.62
248.816	7.62
249.614	5.62
250.412	7.62
251.21	7.62
252.007	5.62
252.805	8.62
253.602	10.62
254.4	8.62
255.197	8.62
255.994	8.62
256.791	8.62
257.589	9.62
258.386	10.62
259.183	10.62
259.979	10.62
260.776	12.62
261.573	10.62
262.37	11.62
263.166	11.62
263.963	10.62
264.759	11.62
265.556	13.62
266.352	11.62
267.148	14.62
267.944	12.62
268.74	12.62
269.536	16.62
270.332	16.62
271.128	17.62
271.924	15.62
272.719	18.62
273.515	14.62
274.311	17.62
275.106	19.62
275.901	15.62
276.697	18.62
277.492	18.62
278.287	16.62
279.082	18.62
279.877	18.62
280.672	18.62
281.467	17.62
282.262	21.62
283.056	19.62
283.851	20.62
284.646	19.62
285.44	17.62
286.234	20.62
287.029	19.62
287.823	18.62
288.617	18.62
289.411	18.62
290.205	17.62
290.999	18.62
291.793	19.62
292.587	17.62
293.381	19.62
294.174	17.62
294.968	14.62
295.761	18.62
296.555	16.62
297.348	17.62
298.141	16.62
298.935	14.62
299.728	15.62
300.521	14.62
301.314	16.62
302.107	13.62
302.899	11.62
303.692	13.62
304.485	12.62
305.277	10.62
306.07	14.62
306.862	13.62
307.655	17.62
308.447	14.62
309.239	14.62
310.031	12.62
310.823	11.62
311.615	10.62
312.407	11.62
313.199	11.62
313.991	8.62
314.783	8.62
315.574	11.62
316.366	8.62
317.157	9.62
317.949	7.62
318.74	8.62
319.531	6.62
320.322	10.62
321.113	6.62
321.904	7.62
322.695	5.62
323.486	7.62
324.277	8.62
325.068	7.62
325.858	10.62
326.649	5.62
327.439	7.62
328.23	6.62
329.02	6.62
329.81	7.62
330.6	8.62
331.391	8.62
332.181	5.62
332.971	7.62
333.76	6.62
334.55	5.62
335.34	7.62
336.13	6.62
336.919	7.62
337.709	7.62
338.498	4.62
339.287	7.62
340.077	7.62
340.866	7.62
341.655	7.62
342.444	5.62
343.233	7.62
344.022	6.62
344.811	7.62
345.6	8.62
346.388	6.62
347.177	6.62
347.965	5.62
348.754	5.62
349.542	6.62
350.33	5.62
351.119	6.62
351.907	3.62
352.695	6.62
353.483	7.62
354.271	5.62
355.059	5.62
355.846	5.62
356.634	8.62
357.422	5.62
358.209	6.62
358.997	8.62
359.784	5.62
360.571	7.62
361.359	6.62
362.146	6.62
362.933	7.62
363.72	7.62
364.507	4.62
365.294	7.62
366.081	5.62
366.867	4.62
367.654	4.62
368.44	6.62
369.227	5.62
370.013	6.62
370.8	7.62
371.586	5.62
372.372	5.62
373.158	7.62
373.944	5.62
374.73	6.62
375.516	7.62
376.302	4.62
377.088	6.62
377.873	5.62
378.659	6.62
379.445	5.62
380.23	6.62
381.015	4.62
381.801	6.62
382.586	5.62
383.371	7.62
384.156	5.62
384.941	2.62
385.726	5.62
386.511	5.62
387.296	7.62
388.08	6.62
388.865	5.62
389.649	6.62
390.434	4.62
391.218	7.62
392.003	5.62
392.787	7.62
393.571	8.62
394.355	5.62
395.139	7.62
395.923	10.62
396.707	7.62
397.491	5.62
398.274	7.62
399.058	5.62
399.842	6.62
400.625	9.62
401.408	7.62
402.192	7.62
402.975	9.62
403.758	7.62
404.541	6.62
405.324	9.62
406.107	6.62
406.89	11.62
407.673	7.62
408.456	7.62
409.238	9.62
410.021	7.62
410.803	8.62
411.586	9.62
412.368	9.62
413.151	10.62
413.933	10.62
414.715	10.62
415.497	10.62
416.279	7.62
417.061	10.62
417.843	12.62
418.624	8.62
419.406	10.62
420.188	11.62
420.969	10.62
421.751	10.62
422.532	12.62
423.313	10.62
424.095	12.62
424.876	11.62
425.657	11.62
426.438	13.62
427.219	12.62
428	10.62
428.78	15.62
429.561	15.62
430.342	13.62
431.122	12.62
431.903	14.62
432.683	18.62
433.464	15.62
434.244	15.62
435.024	18.62
435.804	19.62
436.584	16.62
437.364	19.62
438.144	18.62
438.924	22.62
439.704	22.62
440.483	22.62
441.263	21.62
442.042	23.62
442.822	27.62
443.601	29.62
444.38	31.62
445.16	30.62
445.939	33.62
446.718	35.62
447.497	40.62
448.276	41.62
449.054	46.62
449.833	50.62
450.612	53.62
451.391	57.62
452.169	63.62
452.948	68.62
453.726	82.62
454.504	84.62
455.282	94.62
456.061	101.62
456.839	116.62
457.617	125.62
458.395	139.62
459.172	156.62
459.95	168.62
460.728	192.62
461.506	210.62
462.283	243.62
463.061	260.62
463.838	299.62
464.615	333.62
465.393	371.62
466.17	413.62
466.947	451.62
467.724	508.62
468.501	558.62
469.278	633.62
470.055	695.62
470.831	781.62
471.608	866.62
472.385	949.62
473.161	1075.62
473.938	1162.62
474.714	1309.62
475.49	1423.62
476.266	1582.62
477.043	1753.62
477.819	1937.62
478.595	2141.62
479.371	2349.62
480.146	2596.62
480.922	2841.62
481.698	3155.62
482.473	3459.62
483.249	3771.62
484.024	4151.62
484.8	4557.62
485.575	4987.62
486.35	5490.62
487.126	6012.62
487.901	6592.62
488.676	7186.62
489.451	7883.62
490.225	8612.62
491	9386.62
491.775	10248.62
492.55	11182.62
493.324	12078.62
494.099	12968.62
494.873	13982.62
495.647	15079.62
496.422	16221.62
497.196	17372.62
497.97	18506.62
498.744	19606.62
499.518	20771.62
500.292	21856.62
501.066	22947.62
501.839	23875.62
502.613	24845.62
503.387	25668.62
504.16	26333.62
504.934	26590.62
505.707	26846.62
506.48	26995.62
507.253	27015.62
508.027	26800.62
508.8	26547.62
509.573	26163.62
510.346	25585.62
511.118	24870.62
511.891	24161.62
512.664	23317.62
513.437	22506.62
514.209	21639.62
514.982	20729.62
515.754	19818.62
516.526	18920.62
517.298	18184.62
518.071	17361.62
518.843	16726.62
519.615	16059.62
520.387	15430.62
521.159	14822.62
521.93	14244.62
522.702	13667.62
523.474	13094.62
524.245	12513.62
525.017	12008.62
525.788	11555.62
526.56	11032.62
527.331	10510.62
528.102	10048.62
528.873	9604.62
529.644	9098.62
530.415	8684.62
531.186	8246.62
531.957	7801.62
532.728	7440.62
533.498	7055.62
534.269	6685.62
535.039	6305.62
535.81	5985.62
536.58	5624.62
537.351	5307.62
538.121	5003.62
538.891	4747.62
539.661	4485.62
540.431	4257.62
541.201	4001.62
541.971	3810.62
542.741	3574.62
543.51	3421.62
544.28	3248.62
545.05	3098.62
545.819	2954.62
546.588	2791.62
547.358	2661.62
548.127	2516.62
548.896	2382.62
549.665	2281.62
550.434	2143.62
551.203	2019.62
551.972	1909.62
552.741	1822.62
553.51	1718.62
554.278	1629.62
555.047	1539.62
555.815	1472.62
556.584	1377.62
557.352	1296.62
558.121	1220.62
558.889	1158.62
559.657	1082.62
560.425	1022.62
561.193	972.62
561.961	912.62
562.729	867.62
563.496	830.62
564.264	768.62
565.032	737.62
565.799	694.62
566.567	666.62
567.334	631.62
568.101	588.62
568.869	553.62
569.636	527.62
570.403	478.62
571.17	467.62
571.937	427.62
572.704	422.62
573.471	385.62
574.237	369.62
575.004	342.62
575.771	334.62
576.537	316.62
577.303	287.62
578.07	271.62
578.836	256.62
579.602	235.62
580.368	225.62
581.134	219.62
581.9	202.62
582.666	189.62
583.432	188.62
584.198	176.62
584.964	166.62
585.729	158.62
586.495	151.62
587.26	141.62
588.025	135.62
588.791	128.62
589.556	122.62
590.321	110.62
591.086	105.62
591.851	99.62
592.616	98.62
593.381	89.62
594.146	89.62
594.911	81.62
595.675	82.62
596.44	77.62
597.204	73.62
597.969	67.62
598.733	68.62
599.497	66.62
600.261	59.62
601.025	57.62
601.79	60.62
602.553	51.62
603.317	52.62
604.081	48.62
604.845	49.62
605.609	45.62
606.372	42.62
607.136	40.62
607.899	42.62
608.662	39.62
609.426	38.62
610.189	36.62
610.952	35.62
611.715	33.62
612.478	29.62
613.241	29.62
614.004	32.62
614.767	28.62
615.529	27.62
616.292	25.62
617.055	24.62
617.817	24.62
618.579	25.62
619.342	24.62
620.104	23.62
620.866	22.62
621.628	20.62
622.39	19.62
623.152	19.62
623.914	18.62
624.676	16.62
625.438	15.62
626.199	17.62
626.961	16.62
627.722	13.62
628.484	16.62
629.245	13.62
630.006	14.62
630.768	13.62
631.529	11.62
632.29	13.62
633.051	15.62
633.812	10.62
634.573	13.62
635.333	9.62
636.094	9.62
636.855	13.62
637.615	13.62
638.376	11.62
639.136	8.62
639.896	11.62
640.657	10.62
641.417	12.62
642.177	9.62
642.937	7.62
643.697	10.62
644.457	8.62
645.216	10.62
645.976	10.62
646.736	8.62
647.495	8.62
648.255	8.62
649.014	5.62
649.774	7.62
650.533	8.62
651.292	7.62
652.051	9.62
652.81	8.62
653.569	6.62
654.328	5.62
655.087	5.62
655.846	7.62
656.604	6.62
657.363	5.62
658.121	6.62
658.88	5.62
659.638	8.62
660.397	2.62
661.155	5.62
661.913	5.62
662.671	4.62
663.429	3.62
664.187	6.62
664.945	4.62
665.703	6.62
666.46	4.62
667.218	6.62
667.976	4.62
668.733	7.62
669.49	5.62
670.248	7.62
671.005	5.62
671.762	6.62
672.519	5.62
673.276	3.62
674.033	5.62
674.79	5.62
675.547	5.62
676.304	6.62
677.06	7.62
677.817	5.62
678.574	3.62
679.33	7.62
680.086	3.62
680.843	3.62
681.599	3.62
682.355	3.62
683.111	4.62
683.867	4.62
684.623	5.62
685.379	5.62
686.135	5.62
686.89	4.62
687.646	4.62
688.402	7.62
689.157	5.62
689.912	4.62
690.668	5.62
691.423	3.62
692.178	4.62
692.933	2.62
693.688	3.62
694.443	6.62
695.198	5.62
695.953	1.62
696.708	4.62
697.462	4.62
698.217	3.62
698.972	3.62
699.726	0.62
700.48	5.62
701.235	4.62
701.989	2.62
702.743	4.62
703.497	3.62
704.251	3.62
705.005	3.62
705.759	4.62
706.513	4.62
707.266	2.62
708.02	5.62
708.774	5.62
709.527	6.62
710.28	5.62
711.034	3.62
711.787	6.62
712.54	5.62
713.293	1.62
714.046	5.62
714.799	5.62
715.552	7.62
716.305	2.62
717.058	5.62
717.81	2.62
718.563	5.62
719.315	2.62
720.068	2.62
720.82	5.62
721.573	4.62
722.325	3.62
723.077	3.62
723.829	1.62
724.581	2.62
725.333	3.62
726.085	4.62
726.836	2.62
727.588	5.62
728.34	4.62
729.091	3.62
729.843	3.62
730.594	5.62
731.346	3.62
732.097	4.62
732.848	2.62
733.599	5.62
734.35	5.62
735.101	4.62
735.852	4.62
736.603	4.62
737.354	5.62
738.104	4.62
738.855	2.62
739.605	5.62
740.356	4.62
741.106	6.62
741.856	4.62
742.607	5.62
743.357	6.62
744.107	5.62
744.857	5.62
745.607	5.62
746.357	2.62
747.106	6.62
747.856	6.62
748.606	3.62
749.355	4.62
750.105	4.62
750.854	6.62
751.603	4.62
752.353	8.62
753.102	5.62
753.851	6.62
754.6	5.62
755.349	5.62
756.098	5.62
756.847	8.62
757.595	7.62
758.344	5.62
759.093	4.62
759.841	8.62
760.589	6.62
761.338	7.62
762.086	5.62
762.834	6.62
763.582	5.62
764.331	7.62
765.079	8.62
765.826	6.62
766.574	4.62
767.322	5.62
768.07	8.62
768.817	9.62
769.565	7.62
770.312	9.62
771.06	8.62
771.807	6.62
772.554	8.62
773.302	8.62
774.049	7.62
774.796	9.62
775.543	6.62
776.29	10.62
777.036	8.62
777.783	9.62
778.53	7.62
779.276	10.62
780.023	7.62
780.769	8.62
781.516	10.62
782.262	6.62
783.008	10.62
783.754	10.62
784.5	10.62
785.246	8.62
785.992	10.62
786.738	8.62
787.484	8.62
788.23	11.62
788.975	4.62
789.721	10.62
790.466	8.62
791.212	10.62
791.957	8.62
792.702	6.62
793.447	11.62
794.193	9.62
794.938	10.62
795.683	7.62
796.427	7.62
797.172	8.62
797.917	8.62
798.662	7.62
799.406	7.62
800.151	7.62
800.895	8.62
801.64	6.62
802.384	5.62
803.128	6.62
803.872	7.62
804.616	7.62
805.36	7.62
806.104	7.62
806.848	7.62
807.592	7.62
808.336	9.62
809.079	7.62
809.823	6.62
810.566	6.62
811.31	5.62
812.053	4.62
812.796	6.62
813.539	8.62
814.283	6.62
815.026	6.62
815.769	4.62
816.511	5.62
817.254	6.62
817.997	5.62
818.74	4.62
819.482	2.62
820.225	5.62
820.967	4.62
821.71	6.62
822.452	2.62
823.194	7.62
823.936	4.62
824.678	4.62
825.42	4.62
826.162	4.62
826.904	4.62
827.646	6.62
828.388	5.62
829.129	3.62
829.871	3.62
830.612	6.62
831.354	4.62
832.095	5.62
832.836	5.62
833.577	3.62
834.319	6.62
835.06	4.62
835.801	5.62
836.542	3.62
837.282	5.62
838.023	4.62
838.764	3.62
839.504	5.62
840.245	4.62
840.985	6.62
841.726	0.62
842.466	3.62
843.206	3.62
843.946	2.62
844.687	3.62
845.427	3.62
846.166	3.62
846.906	4.62
847.646	2.62
848.386	4.62
849.125	5.62
849.865	5.62
850.605	3.62
851.344	5.62
852.083	4.62
852.823	6.62
853.562	0.62
854.301	2.62
855.04	1.62
855.779	3.62
856.518	3.62
857.257	4.62
857.995	2.62
858.734	4.62
859.473	0.62
860.211	2.62
860.95	3.62
861.688	2.62
862.426	4.62
863.165	2.62
863.903	4.62
864.641	2.62
865.379	1.62
866.117	4.62
866.855	1.62
867.593	2.62
868.33	0.62
869.068	1.62
869.806	1.62
870.543	2.62
871.28	1.62
872.018	1.62
872.755	3.62
873.492	1.62
874.229	2.62
874.967	0.62
875.703	1.62
876.44	3.62
877.177	0.62
877.914	5.62
878.651	0.62
879.387	2.62
880.124	1.62
880.86	3.62
881.597	2.62
882.333	-0.38
883.069	1.62
883.806	2.62
884.542	1.62
885.278	2.62
886.014	0.62
886.749	0.62
887.485	1.62
888.221	2.62
888.957	2.62
889.692	1.62
890.428	3.62
891.163	-0.38
891.899	2.62
892.634	1.62
893.369	2.62
894.104	-0.38
894.839	1.62
895.574	2.62
896.309	0.62
897.044	2.62
897.779	1.62
898.514	0.62
899.248	2.62
899.983	2.62
900.717	2.62
901.452	1.62
902.186	3.62
902.92	-1.38
903.654	-2.38
904.389	1.62
905.123	1.62
905.857	1.62
906.59	2.62
907.324	0.62
908.058	0.62
908.792	0.62
909.525	2.62
910.259	0.62
910.992	0.62
911.726	0.62
912.459	-1.38
913.192	2.62
913.925	-1.38
914.658	2.62
915.391	2.62
916.124	-0.38
916.857	2.62
917.59	0.62
918.323	1.62
919.055	1.62
919.788	2.62
920.521	0.62
921.253	-1.38
921.985	0.62
922.718	2.62
923.45	3.62
924.182	1.62
924.914	0.62
925.646	2.62
926.378	-0.38
927.11	0.62
927.841	0.62
928.573	0.62
929.305	1.62
930.036	3.62
930.768	3.62
931.499	0.62
932.23	1.62
932.962	1.62
933.693	1.62
934.424	-1.38
935.155	1.62
935.886	0.62
936.617	-0.38
937.348	0.62
938.078	0.62
938.809	0.62
939.54	1.62
940.27	2.62
941.001	2.62
941.731	-0.38
942.461	0.62
943.191	0.62
943.922	4.62
944.652	1.62
945.382	-0.38
946.112	-0.38
946.841	-1.38
947.571	0.62
948.301	0.62
949.031	1.62
949.76	1.62
950.49	-0.38
951.219	-1.38
951.948	0.62
952.678	-0.38
953.407	-0.38
954.136	1.62
954.865	0.62
955.594	0.62
956.323	2.62
957.052	1.62
957.78	0.62
958.509	-0.38
959.238	0.62
959.966	2.62
960.695	-0.38
961.423	1.62
962.151	0.62
962.88	0.62
963.608	-0.38
964.336	0.62
965.064	0.62
965.792	-0.38
966.52	1.62
967.247	0.62
967.975	1.62
968.703	1.62
969.43	-0.38
970.158	-0.38
970.885	-0.38
971.613	-0.38
972.34	1.62
973.067	0.62
973.794	0.62
974.521	0.62
975.248	3.62
975.975	0.62
976.702	0.62
977.429	1.62
978.156	-0.38
978.882	-1.38
979.609	-0.38
980.335	2.62
981.062	-1.38
981.788	1.62
982.514	-0.38
983.24	0.62
983.967	1.62
984.693	-1.38
985.419	1.62
986.144	2.62
986.87	-0.38
987.596	-0.38
988.322	1.62
989.047	1.62
989.773	0.62
990.498	1.62
991.224	0.62
991.949	0.62
992.674	-1.38
993.399	0.62
994.124	2.62
994.849	-0.38
995.574	1.62
996.299	2.62
997.024	-0.38
997.749	1.62
998.473	0.62
999.198	2.62
999.922	0.62
1000.647	0.62
1001.371	2.62
1002.095	0.62
1002.82	-2.38
1003.544	-1.38
1004.268	3.62
1004.992	1.62
1005.716	-0.38
1006.439	2.62
1007.163	1.62
1007.887	2.62
1008.611	0.62
1009.334	-0.38
1010.058	1.62
1010.781	-0.38
1011.504	-0.38
1012.228	1.62
1012.951	0.62
1013.674	0.62
1014.397	-0.38
1015.12	-0.38
