节点500_285_QEPB04081__477__15-03-29-470.txt的数据

Date: Wed Nov 12 15:03:29 CST 2025
User: PC
Spectrometer: QEPB0408
触发模式: 0
积分时间 (秒): 1.000000E-2
Scans to average: 1
启用暗噪声校正: true
启用非线性校正: false
滑动平均宽度: 0
X轴模式: Wavelengths
Number of Pixels in Spectrum: 1044
>>>>>Begin Spectral Data<<<<<
220.843	0.38
221.644	3.38
222.444	1.38
223.244	0.38
224.045	2.38
224.845	0.38
225.645	1.38
226.445	3.38
227.245	1.38
228.045	0.38
228.845	3.38
229.645	2.38
230.444	1.38
231.244	1.38
232.043	0.38
232.843	2.38
233.642	1.38
234.442	3.38
235.241	1.38
236.04	3.38
236.839	1.38
237.638	4.38
238.437	3.38
239.236	4.38
240.035	3.38
240.833	6.38
241.632	4.38
242.43	3.38
243.229	4.38
244.027	5.38
244.826	5.38
245.624	6.38
246.422	4.38
247.22	1.38
248.018	5.38
248.816	5.38
249.614	8.38
250.412	7.38
251.21	5.38
252.007	6.38
252.805	6.38
253.602	6.38
254.4	4.38
255.197	6.38
255.994	7.38
256.791	8.38
257.589	9.38
258.386	6.38
259.183	9.38
259.979	8.38
260.776	9.38
261.573	11.38
262.37	9.38
263.166	11.38
263.963	11.38
264.759	12.38
265.556	13.38
266.352	11.38
267.148	12.38
267.944	8.38
268.74	13.38
269.536	11.38
270.332	14.38
271.128	16.38
271.924	16.38
272.719	17.38
273.515	15.38
274.311	18.38
275.106	16.38
275.901	17.38
276.697	16.38
277.492	16.38
278.287	17.38
279.082	15.38
279.877	19.38
280.672	16.38
281.467	17.38
282.262	17.38
283.056	17.38
283.851	17.38
284.646	16.38
285.44	14.38
286.234	17.38
287.029	18.38
287.823	19.38
288.617	16.38
289.411	16.38
290.205	19.38
290.999	17.38
291.793	18.38
292.587	17.38
293.381	17.38
294.174	15.38
294.968	17.38
295.761	15.38
296.555	15.38
297.348	18.38
298.141	16.38
298.935	17.38
299.728	16.38
300.521	14.38
301.314	15.38
302.107	12.38
302.899	11.38
303.692	13.38
304.485	12.38
305.277	11.38
306.07	11.38
306.862	13.38
307.655	11.38
308.447	10.38
309.239	12.38
310.031	12.38
310.823	12.38
311.615	9.38
312.407	9.38
313.199	9.38
313.991	11.38
314.783	12.38
315.574	10.38
316.366	11.38
317.157	9.38
317.949	8.38
318.74	8.38
319.531	5.38
320.322	8.38
321.113	5.38
321.904	9.38
322.695	7.38
323.486	7.38
324.277	6.38
325.068	9.38
325.858	7.38
326.649	6.38
327.439	8.38
328.23	5.38
329.02	7.38
329.81	5.38
330.6	5.38
331.391	6.38
332.181	7.38
332.971	6.38
333.76	5.38
334.55	6.38
335.34	7.38
336.13	3.38
336.919	9.38
337.709	4.38
338.498	5.38
339.287	6.38
340.077	6.38
340.866	7.38
341.655	6.38
342.444	5.38
343.233	4.38
344.022	7.38
344.811	5.38
345.6	4.38
346.388	7.38
347.177	6.38
347.965	6.38
348.754	3.38
349.542	6.38
350.33	7.38
351.119	4.38
351.907	5.38
352.695	6.38
353.483	4.38
354.271	4.38
355.059	5.38
355.846	4.38
356.634	3.38
357.422	5.38
358.209	5.38
358.997	8.38
359.784	4.38
360.571	3.38
361.359	6.38
362.146	3.38
362.933	3.38
363.72	3.38
364.507	5.38
365.294	6.38
366.081	2.38
366.867	3.38
367.654	5.38
368.44	6.38
369.227	7.38
370.013	4.38
370.8	4.38
371.586	6.38
372.372	6.38
373.158	4.38
373.944	4.38
374.73	4.38
375.516	4.38
376.302	3.38
377.088	6.38
377.873	5.38
378.659	5.38
379.445	4.38
380.23	5.38
381.015	4.38
381.801	5.38
382.586	5.38
383.371	5.38
384.156	5.38
384.941	5.38
385.726	6.38
386.511	4.38
387.296	5.38
388.08	6.38
388.865	4.38
389.649	6.38
390.434	3.38
391.218	3.38
392.003	6.38
392.787	6.38
393.571	7.38
394.355	7.38
395.139	6.38
395.923	1.38
396.707	5.38
397.491	5.38
398.274	5.38
399.058	7.38
399.842	8.38
400.625	5.38
401.408	4.38
402.192	7.38
402.975	6.38
403.758	8.38
404.541	6.38
405.324	6.38
406.107	9.38
406.89	6.38
407.673	6.38
408.456	7.38
409.238	8.38
410.021	7.38
410.803	7.38
411.586	8.38
412.368	9.38
413.151	8.38
413.933	8.38
414.715	9.38
415.497	9.38
416.279	10.38
417.061	9.38
417.843	7.38
418.624	8.38
419.406	10.38
420.188	9.38
420.969	9.38
421.751	8.38
422.532	9.38
423.313	9.38
424.095	10.38
424.876	12.38
425.657	8.38
426.438	12.38
427.219	10.38
428	15.38
428.78	14.38
429.561	13.38
430.342	16.38
431.122	13.38
431.903	13.38
432.683	13.38
433.464	17.38
434.244	15.38
435.024	17.38
435.804	18.38
436.584	22.38
437.364	19.38
438.144	20.38
438.924	19.38
439.704	22.38
440.483	23.38
441.263	23.38
442.042	24.38
442.822	25.38
443.601	26.38
444.38	31.38
445.16	33.38
445.939	34.38
446.718	37.38
447.497	38.38
448.276	46.38
449.054	46.38
449.833	52.38
450.612	49.38
451.391	58.38
452.169	67.38
452.948	68.38
453.726	75.38
454.504	82.38
455.282	92.38
456.061	102.38
456.839	108.38
457.617	126.38
458.395	137.38
459.172	158.38
459.95	175.38
460.728	191.38
461.506	214.38
462.283	239.38
463.061	258.38
463.838	297.38
464.615	336.38
465.393	363.38
466.17	403.38
466.947	462.38
467.724	504.38
468.501	571.38
469.278	633.38
470.055	707.38
470.831	780.38
471.608	867.38
472.385	956.38
473.161	1053.38
473.938	1175.38
474.714	1298.38
475.49	1445.38
476.266	1594.38
477.043	1753.38
477.819	1923.38
478.595	2132.38
479.371	2343.38
480.146	2571.38
480.922	2836.38
481.698	3118.38
482.473	3415.38
483.249	3780.38
484.024	4143.38
484.8	4559.38
485.575	4982.38
486.35	5455.38
487.126	6007.38
487.901	6579.38
488.676	7181.38
489.451	7852.38
490.225	8605.38
491	9362.38
491.775	10220.38
492.55	11070.38
493.324	12031.38
494.099	12958.38
494.873	13971.38
495.647	15075.38
496.422	16145.38
497.196	17251.38
497.97	18404.38
498.744	19525.38
499.518	20642.38
500.292	21806.38
501.066	22868.38
501.839	23838.38
502.613	24726.38
503.387	25531.38
504.16	26206.38
504.934	26562.38
505.707	26806.38
506.48	26935.38
507.253	26976.38
508.027	26696.38
508.8	26433.38
509.573	26121.38
510.346	25565.38
511.118	24854.38
511.891	24180.38
512.664	23346.38
513.437	22442.38
514.209	21617.38
514.982	20792.38
515.754	19842.38
516.526	18949.38
517.298	18157.38
518.071	17358.38
518.843	16668.38
519.615	16092.38
520.387	15443.38
521.159	14803.38
521.93	14219.38
522.702	13642.38
523.474	13094.38
524.245	12537.38
525.017	11966.38
525.788	11575.38
526.56	11021.38
527.331	10525.38
528.102	10065.38
528.873	9609.38
529.644	9111.38
530.415	8679.38
531.186	8249.38
531.957	7844.38
532.728	7440.38
533.498	7038.38
534.269	6670.38
535.039	6309.38
535.81	5966.38
536.58	5636.38
537.351	5288.38
538.121	5012.38
538.891	4748.38
539.661	4481.38
540.431	4241.38
541.201	4003.38
541.971	3795.38
542.741	3594.38
543.51	3408.38
544.28	3249.38
545.05	3105.38
545.819	2936.38
546.588	2781.38
547.358	2671.38
548.127	2543.38
548.896	2381.38
549.665	2280.38
550.434	2154.38
551.203	2038.38
551.972	1934.38
552.741	1805.38
553.51	1750.38
554.278	1626.38
555.047	1541.38
555.815	1451.38
556.584	1371.38
557.352	1284.38
558.121	1229.38
558.889	1155.38
559.657	1111.38
560.425	1025.38
561.193	968.38
561.961	907.38
562.729	854.38
563.496	814.38
564.264	774.38
565.032	745.38
565.799	698.38
566.567	657.38
567.334	621.38
568.101	592.38
568.869	561.38
569.636	525.38
570.403	485.38
571.17	457.38
571.937	429.38
572.704	406.38
573.471	393.38
574.237	368.38
575.004	350.38
575.771	328.38
576.537	310.38
577.303	289.38
578.07	267.38
578.836	253.38
579.602	241.38
580.368	223.38
581.134	215.38
581.9	209.38
582.666	200.38
583.432	179.38
584.198	176.38
584.964	164.38
585.729	152.38
586.495	151.38
587.26	142.38
588.025	134.38
588.791	127.38
589.556	121.38
590.321	115.38
591.086	108.38
591.851	103.38
592.616	97.38
593.381	90.38
594.146	87.38
594.911	83.38
595.675	82.38
596.44	78.38
597.204	72.38
597.969	66.38
598.733	67.38
599.497	60.38
600.261	63.38
601.025	58.38
601.79	55.38
602.553	51.38
603.317	53.38
604.081	50.38
604.845	42.38
605.609	46.38
606.372	44.38
607.136	43.38
607.899	41.38
608.662	37.38
609.426	35.38
610.189	36.38
610.952	32.38
611.715	31.38
612.478	33.38
613.241	31.38
614.004	30.38
614.767	28.38
615.529	27.38
616.292	26.38
617.055	26.38
617.817	22.38
618.579	22.38
619.342	22.38
620.104	21.38
620.866	20.38
621.628	20.38
622.39	20.38
623.152	17.38
623.914	17.38
624.676	17.38
625.438	19.38
626.199	15.38
626.961	15.38
627.722	13.38
628.484	14.38
629.245	14.38
630.006	13.38
630.768	15.38
631.529	15.38
632.29	12.38
633.051	8.38
633.812	10.38
634.573	10.38
635.333	11.38
636.094	10.38
636.855	8.38
637.615	11.38
638.376	10.38
639.136	9.38
639.896	10.38
640.657	7.38
641.417	9.38
642.177	7.38
642.937	8.38
643.697	10.38
644.457	7.38
645.216	10.38
645.976	5.38
646.736	7.38
647.495	5.38
648.255	8.38
649.014	6.38
649.774	7.38
650.533	8.38
651.292	5.38
652.051	6.38
652.81	6.38
653.569	5.38
654.328	5.38
655.087	3.38
655.846	7.38
656.604	5.38
657.363	2.38
658.121	6.38
658.88	5.38
659.638	4.38
660.397	6.38
661.155	5.38
661.913	4.38
662.671	5.38
663.429	2.38
664.187	5.38
664.945	5.38
665.703	4.38
666.46	3.38
667.218	4.38
667.976	5.38
668.733	3.38
669.49	3.38
670.248	1.38
671.005	4.38
671.762	2.38
672.519	4.38
673.276	2.38
674.033	2.38
674.79	2.38
675.547	4.38
676.304	3.38
677.06	4.38
677.817	4.38
678.574	4.38
679.33	5.38
680.086	4.38
680.843	4.38
681.599	4.38
682.355	6.38
683.111	4.38
683.867	5.38
684.623	3.38
685.379	1.38
686.135	5.38
686.89	3.38
687.646	0.38
688.402	0.38
689.157	4.38
689.912	4.38
690.668	1.38
691.423	4.38
692.178	3.38
692.933	5.38
693.688	4.38
694.443	3.38
695.198	2.38
695.953	4.38
696.708	4.38
697.462	1.38
698.217	5.38
698.972	2.38
699.726	2.38
700.48	3.38
701.235	3.38
701.989	0.38
702.743	4.38
703.497	3.38
704.251	4.38
705.005	1.38
705.759	3.38
706.513	4.38
707.266	4.38
708.02	3.38
708.774	3.38
709.527	4.38
710.28	2.38
711.034	3.38
711.787	2.38
712.54	3.38
713.293	2.38
714.046	3.38
714.799	2.38
715.552	3.38
716.305	6.38
717.058	3.38
717.81	2.38
718.563	4.38
719.315	4.38
720.068	5.38
720.82	1.38
721.573	6.38
722.325	4.38
723.077	2.38
723.829	4.38
724.581	4.38
725.333	3.38
726.085	3.38
726.836	5.38
727.588	5.38
728.34	4.38
729.091	2.38
729.843	5.38
730.594	5.38
731.346	2.38
732.097	2.38
732.848	4.38
733.599	3.38
734.35	3.38
735.101	5.38
735.852	2.38
736.603	3.38
737.354	4.38
738.104	4.38
738.855	5.38
739.605	6.38
740.356	5.38
741.106	4.38
741.856	6.38
742.607	4.38
743.357	3.38
744.107	7.38
744.857	2.38
745.607	5.38
746.357	4.38
747.106	2.38
747.856	4.38
748.606	2.38
749.355	3.38
750.105	5.38
750.854	5.38
751.603	5.38
752.353	6.38
753.102	4.38
753.851	5.38
754.6	3.38
755.349	5.38
756.098	5.38
756.847	6.38
757.595	3.38
758.344	4.38
759.093	5.38
759.841	7.38
760.589	5.38
761.338	4.38
762.086	4.38
762.834	4.38
763.582	3.38
764.331	8.38
765.079	7.38
765.826	5.38
766.574	7.38
767.322	6.38
768.07	7.38
768.817	7.38
769.565	8.38
770.312	5.38
771.06	6.38
771.807	6.38
772.554	7.38
773.302	6.38
774.049	5.38
774.796	6.38
775.543	6.38
776.29	6.38
777.036	8.38
777.783	8.38
778.53	7.38
779.276	7.38
780.023	9.38
780.769	10.38
781.516	7.38
782.262	8.38
783.008	8.38
783.754	9.38
784.5	9.38
785.246	8.38
785.992	8.38
786.738	7.38
787.484	9.38
788.23	6.38
788.975	8.38
789.721	7.38
790.466	6.38
791.212	7.38
791.957	10.38
792.702	8.38
793.447	9.38
794.193	6.38
794.938	8.38
795.683	9.38
796.427	7.38
797.172	7.38
797.917	7.38
798.662	5.38
799.406	8.38
800.151	8.38
800.895	7.38
801.64	8.38
802.384	7.38
803.128	7.38
803.872	7.38
804.616	5.38
805.36	6.38
806.104	5.38
806.848	5.38
807.592	4.38
808.336	4.38
809.079	6.38
809.823	4.38
810.566	5.38
811.31	5.38
812.053	5.38
812.796	6.38
813.539	5.38
814.283	4.38
815.026	2.38
815.769	5.38
816.511	5.38
817.254	3.38
817.997	5.38
818.74	4.38
819.482	5.38
820.225	3.38
820.967	6.38
821.71	4.38
822.452	2.38
823.194	4.38
823.936	3.38
824.678	5.38
825.42	3.38
826.162	3.38
826.904	5.38
827.646	2.38
828.388	3.38
829.129	1.38
829.871	5.38
830.612	3.38
831.354	3.38
832.095	2.38
832.836	3.38
833.577	4.38
834.319	3.38
835.06	3.38
835.801	4.38
836.542	2.38
837.282	2.38
838.023	1.38
838.764	1.38
839.504	3.38
840.245	2.38
840.985	3.38
841.726	3.38
842.466	2.38
843.206	4.38
843.946	3.38
844.687	3.38
845.427	2.38
846.166	1.38
846.906	3.38
847.646	4.38
848.386	2.38
849.125	4.38
849.865	3.38
850.605	2.38
851.344	5.38
852.083	1.38
852.823	2.38
853.562	2.38
854.301	1.38
855.04	3.38
855.779	0.38
856.518	1.38
857.257	-0.62
857.995	2.38
858.734	1.38
859.473	2.38
860.211	1.38
860.95	-0.62
861.688	2.38
862.426	2.38
863.165	-1.62
863.903	1.38
864.641	0.38
865.379	2.38
866.117	1.38
866.855	2.38
867.593	1.38
868.33	1.38
869.068	1.38
869.806	-2.62
870.543	-0.62
871.28	1.38
872.018	1.38
872.755	0.38
873.492	0.38
874.229	0.38
874.967	0.38
875.703	-0.62
876.44	0.38
877.177	1.38
877.914	0.38
878.651	0.38
879.387	1.38
880.124	-0.62
880.86	3.38
881.597	0.38
882.333	-0.62
883.069	1.38
883.806	2.38
884.542	3.38
885.278	-0.62
886.014	1.38
886.749	3.38
887.485	-1.62
888.221	1.38
888.957	1.38
889.692	1.38
890.428	0.38
891.163	1.38
891.899	1.38
892.634	3.38
893.369	2.38
894.104	0.38
894.839	0.38
895.574	-0.62
896.309	1.38
897.044	-1.62
897.779	-0.62
898.514	1.38
899.248	1.38
899.983	-0.62
900.717	-0.62
901.452	1.38
902.186	-0.62
902.92	-0.62
903.654	-0.62
904.389	-1.62
905.123	0.38
905.857	1.38
906.59	0.38
907.324	-0.62
908.058	-1.62
908.792	-0.62
909.525	0.38
910.259	-0.62
910.992	0.38
911.726	-0.62
912.459	1.38
913.192	0.38
913.925	2.38
914.658	0.38
915.391	0.38
916.124	2.38
916.857	-0.62
917.59	0.38
918.323	-0.62
919.055	-0.62
919.788	-0.62
920.521	1.38
921.253	3.38
921.985	-0.62
922.718	0.38
923.45	-0.62
924.182	0.38
924.914	-0.62
925.646	-0.62
926.378	0.38
927.11	0.38
927.841	0.38
928.573	-1.62
929.305	-0.62
930.036	0.38
930.768	1.38
931.499	2.38
932.23	-0.62
932.962	0.38
933.693	0.38
934.424	-0.62
935.155	2.38
935.886	-0.62
936.617	0.38
937.348	-1.62
938.078	-0.62
938.809	1.38
939.54	-1.62
940.27	-1.62
941.001	-0.62
941.731	0.38
942.461	0.38
943.191	1.38
943.922	-0.62
944.652	-0.62
945.382	-0.62
946.112	0.38
946.841	-1.62
947.571	-1.62
948.301	-1.62
949.031	1.38
949.76	0.38
950.49	-0.62
951.219	1.38
951.948	-0.62
952.678	1.38
953.407	-1.62
954.136	-1.62
954.865	-0.62
955.594	-0.62
956.323	-2.62
957.052	2.38
957.78	0.38
958.509	-0.62
959.238	-1.62
959.966	1.38
960.695	-1.62
961.423	1.38
962.151	-0.62
962.88	0.38
963.608	0.38
964.336	-0.62
965.064	-1.62
965.792	-2.62
966.52	-0.62
967.247	-0.62
967.975	-0.62
968.703	-1.62
969.43	-0.62
970.158	0.38
970.885	-0.62
971.613	-1.62
972.34	-1.62
973.067	-1.62
973.794	-2.62
974.521	-1.62
975.248	-1.62
975.975	-1.62
976.702	1.38
977.429	-0.62
978.156	0.38
978.882	-1.62
979.609	-1.62
980.335	-0.62
981.062	0.38
981.788	-0.62
982.514	-1.62
983.24	-1.62
983.967	0.38
984.693	0.38
985.419	1.38
986.144	-2.62
986.87	-2.62
987.596	-2.62
988.322	-0.62
989.047	-1.62
989.773	0.38
990.498	0.38
991.224	-0.62
991.949	0.38
992.674	0.38
993.399	-0.62
994.124	-0.62
994.849	-1.62
995.574	2.38
996.299	0.38
997.024	-2.62
997.749	-0.62
998.473	-0.62
999.198	0.38
999.922	1.38
1000.647	-1.62
1001.371	3.38
1002.095	-0.62
1002.82	-0.62
1003.544	-1.62
1004.268	-0.62
1004.992	1.38
1005.716	1.38
1006.439	0.38
1007.163	2.38
1007.887	1.38
1008.611	0.38
1009.334	0.38
1010.058	1.38
1010.781	1.38
1011.504	1.38
1012.228	0.38
1012.951	0.38
1013.674	0.38
1014.397	-0.62
1015.12	-0.62
