节点500_285_QEPB04081__296__15-00-28-777.txt的数据

Date: Wed Nov 12 15:00:28 CST 2025
User: PC
Spectrometer: QEPB0408
触发模式: 0
积分时间 (秒): 1.000000E-2
Scans to average: 1
启用暗噪声校正: true
启用非线性校正: false
滑动平均宽度: 0
X轴模式: Wavelengths
Number of Pixels in Spectrum: 1044
>>>>>Begin Spectral Data<<<<<
220.843	1.12
221.644	1.12
222.444	3.12
223.244	1.12
224.045	3.12
224.845	1.12
225.645	3.12
226.445	0.12
227.245	2.12
228.045	2.12
228.845	4.12
229.645	3.12
230.444	1.12
231.244	3.12
232.043	5.12
232.843	5.12
233.642	2.12
234.442	3.12
235.241	3.12
236.04	2.12
236.839	3.12
237.638	3.12
238.437	2.12
239.236	5.12
240.035	2.12
240.833	6.12
241.632	5.12
242.43	4.12
243.229	3.12
244.027	2.12
244.826	1.12
245.624	4.12
246.422	5.12
247.22	5.12
248.018	4.12
248.816	4.12
249.614	5.12
250.412	5.12
251.21	7.12
252.007	7.12
252.805	6.12
253.602	7.12
254.4	5.12
255.197	2.12
255.994	6.12
256.791	7.12
257.589	9.12
258.386	9.12
259.183	7.12
259.979	7.12
260.776	8.12
261.573	10.12
262.37	12.12
263.166	11.12
263.963	11.12
264.759	13.12
265.556	11.12
266.352	11.12
267.148	11.12
267.944	12.12
268.74	13.12
269.536	13.12
270.332	14.12
271.128	13.12
271.924	13.12
272.719	13.12
273.515	17.12
274.311	13.12
275.106	18.12
275.901	16.12
276.697	16.12
277.492	18.12
278.287	19.12
279.082	19.12
279.877	18.12
280.672	17.12
281.467	17.12
282.262	18.12
283.056	21.12
283.851	18.12
284.646	22.12
285.44	19.12
286.234	17.12
287.029	18.12
287.823	19.12
288.617	19.12
289.411	18.12
290.205	15.12
290.999	20.12
291.793	16.12
292.587	20.12
293.381	15.12
294.174	18.12
294.968	19.12
295.761	15.12
296.555	15.12
297.348	13.12
298.141	15.12
298.935	19.12
299.728	13.12
300.521	13.12
301.314	13.12
302.107	13.12
302.899	13.12
303.692	12.12
304.485	14.12
305.277	11.12
306.07	11.12
306.862	10.12
307.655	11.12
308.447	15.12
309.239	10.12
310.031	12.12
310.823	8.12
311.615	9.12
312.407	8.12
313.199	11.12
313.991	8.12
314.783	8.12
315.574	9.12
316.366	7.12
317.157	6.12
317.949	7.12
318.74	8.12
319.531	8.12
320.322	5.12
321.113	8.12
321.904	8.12
322.695	6.12
323.486	6.12
324.277	7.12
325.068	7.12
325.858	6.12
326.649	6.12
327.439	5.12
328.23	7.12
329.02	7.12
329.81	7.12
330.6	5.12
331.391	5.12
332.181	7.12
332.971	5.12
333.76	4.12
334.55	7.12
335.34	5.12
336.13	6.12
336.919	5.12
337.709	3.12
338.498	5.12
339.287	4.12
340.077	5.12
340.866	6.12
341.655	7.12
342.444	5.12
343.233	6.12
344.022	5.12
344.811	3.12
345.6	4.12
346.388	6.12
347.177	5.12
347.965	8.12
348.754	5.12
349.542	6.12
350.33	4.12
351.119	6.12
351.907	4.12
352.695	6.12
353.483	6.12
354.271	5.12
355.059	5.12
355.846	3.12
356.634	6.12
357.422	5.12
358.209	2.12
358.997	4.12
359.784	5.12
360.571	4.12
361.359	4.12
362.146	5.12
362.933	3.12
363.72	2.12
364.507	8.12
365.294	6.12
366.081	4.12
366.867	5.12
367.654	3.12
368.44	6.12
369.227	3.12
370.013	1.12
370.8	4.12
371.586	5.12
372.372	3.12
373.158	6.12
373.944	4.12
374.73	4.12
375.516	5.12
376.302	7.12
377.088	3.12
377.873	4.12
378.659	3.12
379.445	5.12
380.23	4.12
381.015	3.12
381.801	4.12
382.586	5.12
383.371	7.12
384.156	6.12
384.941	7.12
385.726	3.12
386.511	4.12
387.296	5.12
388.08	5.12
388.865	6.12
389.649	5.12
390.434	8.12
391.218	4.12
392.003	5.12
392.787	5.12
393.571	6.12
394.355	5.12
395.139	4.12
395.923	6.12
396.707	4.12
397.491	4.12
398.274	6.12
399.058	5.12
399.842	5.12
400.625	7.12
401.408	5.12
402.192	5.12
402.975	7.12
403.758	7.12
404.541	7.12
405.324	7.12
406.107	7.12
406.89	6.12
407.673	6.12
408.456	6.12
409.238	8.12
410.021	7.12
410.803	7.12
411.586	8.12
412.368	4.12
413.151	10.12
413.933	7.12
414.715	8.12
415.497	9.12
416.279	8.12
417.061	8.12
417.843	9.12
418.624	9.12
419.406	7.12
420.188	10.12
420.969	12.12
421.751	8.12
422.532	10.12
423.313	8.12
424.095	12.12
424.876	13.12
425.657	10.12
426.438	12.12
427.219	14.12
428	11.12
428.78	12.12
429.561	12.12
430.342	12.12
431.122	13.12
431.903	15.12
432.683	14.12
433.464	15.12
434.244	13.12
435.024	15.12
435.804	20.12
436.584	19.12
437.364	21.12
438.144	16.12
438.924	21.12
439.704	24.12
440.483	21.12
441.263	25.12
442.042	25.12
442.822	25.12
443.601	27.12
444.38	30.12
445.16	29.12
445.939	33.12
446.718	31.12
447.497	36.12
448.276	40.12
449.054	44.12
449.833	48.12
450.612	50.12
451.391	55.12
452.169	59.12
452.948	65.12
453.726	74.12
454.504	76.12
455.282	87.12
456.061	97.12
456.839	107.12
457.617	121.12
458.395	129.12
459.172	150.12
459.95	161.12
460.728	183.12
461.506	202.12
462.283	230.12
463.061	252.12
463.838	293.12
464.615	324.12
465.393	358.12
466.17	400.12
466.947	446.12
467.724	502.12
468.501	553.12
469.278	614.12
470.055	686.12
470.831	757.12
471.608	847.12
472.385	928.12
473.161	1046.12
473.938	1156.12
474.714	1277.12
475.49	1417.12
476.266	1586.12
477.043	1743.12
477.819	1912.12
478.595	2147.12
479.371	2349.12
480.146	2597.12
480.922	2846.12
481.698	3142.12
482.473	3471.12
483.249	3833.12
484.024	4256.12
484.8	4644.12
485.575	5128.12
486.35	5629.12
487.126	6168.12
487.901	6794.12
488.676	7448.12
489.451	8149.12
490.225	8880.12
491	9736.12
491.775	10681.12
492.55	11636.12
493.324	12607.12
494.099	13578.12
494.873	14648.12
495.647	15873.12
496.422	16978.12
497.196	18235.12
497.97	19410.12
498.744	20607.12
499.518	21760.12
500.292	22893.12
501.066	24101.12
501.839	24913.12
502.613	25767.12
503.387	26558.12
504.16	27223.12
504.934	27505.12
505.707	27599.12
506.48	27719.12
507.253	27513.12
508.027	27274.12
508.8	26934.12
509.573	26554.12
510.346	25863.12
511.118	25000.12
511.891	24270.12
512.664	23383.12
513.437	22465.12
514.209	21476.12
514.982	20591.12
515.754	19667.12
516.526	18816.12
517.298	17961.12
518.071	17201.12
518.843	16544.12
519.615	15874.12
520.387	15275.12
521.159	14676.12
521.93	14150.12
522.702	13531.12
523.474	12920.12
524.245	12397.12
525.017	11876.12
525.788	11389.12
526.56	10923.12
527.331	10343.12
528.102	9911.12
528.873	9423.12
529.644	9017.12
530.415	8507.12
531.186	8100.12
531.957	7683.12
532.728	7246.12
533.498	6909.12
534.269	6505.12
535.039	6162.12
535.81	5803.12
536.58	5463.12
537.351	5168.12
538.121	4874.12
538.891	4636.12
539.661	4400.12
540.431	4114.12
541.201	3877.12
541.971	3691.12
542.741	3506.12
543.51	3332.12
544.28	3184.12
545.05	3012.12
545.819	2877.12
546.588	2722.12
547.358	2601.12
548.127	2448.12
548.896	2334.12
549.665	2214.12
550.434	2100.12
551.203	1984.12
551.972	1881.12
552.741	1761.12
553.51	1685.12
554.278	1576.12
555.047	1505.12
555.815	1413.12
556.584	1322.12
557.352	1251.12
558.121	1193.12
558.889	1113.12
559.657	1044.12
560.425	1008.12
561.193	941.12
561.961	888.12
562.729	848.12
563.496	783.12
564.264	758.12
565.032	704.12
565.799	659.12
566.567	634.12
567.334	601.12
568.101	567.12
568.869	526.12
569.636	504.12
570.403	467.12
571.17	443.12
571.937	421.12
572.704	404.12
573.471	372.12
574.237	356.12
575.004	333.12
575.771	309.12
576.537	294.12
577.303	274.12
578.07	263.12
578.836	246.12
579.602	231.12
580.368	213.12
581.134	214.12
581.9	197.12
582.666	187.12
583.432	176.12
584.198	170.12
584.964	158.12
585.729	147.12
586.495	142.12
587.26	137.12
588.025	125.12
588.791	121.12
589.556	115.12
590.321	107.12
591.086	104.12
591.851	97.12
592.616	92.12
593.381	90.12
594.146	84.12
594.911	81.12
595.675	76.12
596.44	73.12
597.204	67.12
597.969	66.12
598.733	64.12
599.497	64.12
600.261	61.12
601.025	53.12
601.79	53.12
602.553	50.12
603.317	49.12
604.081	47.12
604.845	46.12
605.609	44.12
606.372	42.12
607.136	38.12
607.899	38.12
608.662	41.12
609.426	35.12
610.189	35.12
610.952	33.12
611.715	29.12
612.478	32.12
613.241	28.12
614.004	28.12
614.767	28.12
615.529	24.12
616.292	23.12
617.055	22.12
617.817	24.12
618.579	22.12
619.342	17.12
620.104	19.12
620.866	22.12
621.628	18.12
622.39	17.12
623.152	17.12
623.914	18.12
624.676	17.12
625.438	17.12
626.199	14.12
626.961	15.12
627.722	14.12
628.484	14.12
629.245	14.12
630.006	13.12
630.768	10.12
631.529	13.12
632.29	12.12
633.051	11.12
633.812	11.12
634.573	12.12
635.333	11.12
636.094	11.12
636.855	9.12
637.615	9.12
638.376	9.12
639.136	8.12
639.896	9.12
640.657	8.12
641.417	8.12
642.177	7.12
642.937	10.12
643.697	8.12
644.457	8.12
645.216	10.12
645.976	7.12
646.736	6.12
647.495	8.12
648.255	7.12
649.014	5.12
649.774	6.12
650.533	5.12
651.292	5.12
652.051	7.12
652.81	6.12
653.569	7.12
654.328	7.12
655.087	6.12
655.846	6.12
656.604	5.12
657.363	6.12
658.121	5.12
658.88	6.12
659.638	5.12
660.397	8.12
661.155	1.12
661.913	6.12
662.671	4.12
663.429	5.12
664.187	3.12
664.945	2.12
665.703	5.12
666.46	4.12
667.218	5.12
667.976	5.12
668.733	5.12
669.49	3.12
670.248	6.12
671.005	5.12
671.762	3.12
672.519	4.12
673.276	4.12
674.033	2.12
674.79	4.12
675.547	6.12
676.304	3.12
677.06	6.12
677.817	3.12
678.574	4.12
679.33	3.12
680.086	3.12
680.843	4.12
681.599	3.12
682.355	5.12
683.111	4.12
683.867	3.12
684.623	4.12
685.379	2.12
686.135	5.12
686.89	4.12
687.646	2.12
688.402	4.12
689.157	1.12
689.912	2.12
690.668	2.12
691.423	2.12
692.178	4.12
692.933	3.12
693.688	2.12
694.443	1.12
695.198	4.12
695.953	4.12
696.708	4.12
697.462	4.12
698.217	1.12
698.972	5.12
699.726	5.12
700.48	3.12
701.235	3.12
701.989	4.12
702.743	2.12
703.497	3.12
704.251	4.12
705.005	2.12
705.759	3.12
706.513	3.12
707.266	2.12
708.02	3.12
708.774	1.12
709.527	3.12
710.28	4.12
711.034	2.12
711.787	3.12
712.54	1.12
713.293	0.12
714.046	3.12
714.799	5.12
715.552	6.12
716.305	2.12
717.058	4.12
717.81	4.12
718.563	3.12
719.315	4.12
720.068	2.12
720.82	3.12
721.573	2.12
722.325	4.12
723.077	3.12
723.829	3.12
724.581	3.12
725.333	3.12
726.085	5.12
726.836	4.12
727.588	5.12
728.34	4.12
729.091	4.12
729.843	2.12
730.594	1.12
731.346	3.12
732.097	2.12
732.848	5.12
733.599	4.12
734.35	3.12
735.101	4.12
735.852	6.12
736.603	3.12
737.354	5.12
738.104	4.12
738.855	6.12
739.605	5.12
740.356	4.12
741.106	3.12
741.856	4.12
742.607	5.12
743.357	5.12
744.107	5.12
744.857	5.12
745.607	5.12
746.357	6.12
747.106	5.12
747.856	5.12
748.606	5.12
749.355	5.12
750.105	5.12
750.854	7.12
751.603	5.12
752.353	3.12
753.102	3.12
753.851	4.12
754.6	6.12
755.349	5.12
756.098	5.12
756.847	7.12
757.595	3.12
758.344	5.12
759.093	4.12
759.841	6.12
760.589	5.12
761.338	6.12
762.086	6.12
762.834	6.12
763.582	7.12
764.331	6.12
765.079	8.12
765.826	5.12
766.574	7.12
767.322	9.12
768.07	6.12
768.817	8.12
769.565	7.12
770.312	7.12
771.06	5.12
771.807	5.12
772.554	8.12
773.302	9.12
774.049	7.12
774.796	8.12
775.543	7.12
776.29	7.12
777.036	8.12
777.783	9.12
778.53	9.12
779.276	7.12
780.023	6.12
780.769	9.12
781.516	8.12
782.262	6.12
783.008	8.12
783.754	9.12
784.5	7.12
785.246	8.12
785.992	6.12
786.738	11.12
787.484	7.12
788.23	9.12
788.975	9.12
789.721	10.12
790.466	6.12
791.212	7.12
791.957	9.12
792.702	6.12
793.447	8.12
794.193	7.12
794.938	7.12
795.683	7.12
796.427	9.12
797.172	7.12
797.917	6.12
798.662	7.12
799.406	7.12
800.151	7.12
800.895	8.12
801.64	8.12
802.384	7.12
803.128	8.12
803.872	3.12
804.616	7.12
805.36	4.12
806.104	6.12
806.848	5.12
807.592	4.12
808.336	5.12
809.079	5.12
809.823	4.12
810.566	4.12
811.31	4.12
812.053	6.12
812.796	7.12
813.539	3.12
814.283	2.12
815.026	6.12
815.769	4.12
816.511	4.12
817.254	6.12
817.997	3.12
818.74	5.12
819.482	2.12
820.225	3.12
820.967	4.12
821.71	3.12
822.452	4.12
823.194	4.12
823.936	4.12
824.678	2.12
825.42	4.12
826.162	5.12
826.904	2.12
827.646	3.12
828.388	2.12
829.129	6.12
829.871	3.12
830.612	3.12
831.354	2.12
832.095	4.12
832.836	3.12
833.577	2.12
834.319	3.12
835.06	1.12
835.801	2.12
836.542	6.12
837.282	4.12
838.023	2.12
838.764	3.12
839.504	3.12
840.245	5.12
840.985	1.12
841.726	3.12
842.466	2.12
843.206	4.12
843.946	2.12
844.687	2.12
845.427	1.12
846.166	2.12
846.906	4.12
847.646	2.12
848.386	3.12
849.125	2.12
849.865	2.12
850.605	2.12
851.344	1.12
852.083	3.12
852.823	1.12
853.562	1.12
854.301	0.12
855.04	0.12
855.779	2.12
856.518	1.12
857.257	1.12
857.995	0.12
858.734	3.12
859.473	2.12
860.211	3.12
860.95	3.12
861.688	-0.88
862.426	2.12
863.165	1.12
863.903	0.12
864.641	3.12
865.379	2.12
866.117	1.12
866.855	1.12
867.593	2.12
868.33	1.12
869.068	1.12
869.806	1.12
870.543	0.12
871.28	3.12
872.018	1.12
872.755	1.12
873.492	1.12
874.229	2.12
874.967	0.12
875.703	-0.88
876.44	2.12
877.177	0.12
877.914	1.12
878.651	1.12
879.387	-1.88
880.124	1.12
880.86	-0.88
881.597	2.12
882.333	-0.88
883.069	1.12
883.806	2.12
884.542	-0.88
885.278	1.12
886.014	-1.88
886.749	1.12
887.485	-2.88
888.221	-0.88
888.957	2.12
889.692	-0.88
890.428	0.12
891.163	-0.88
891.899	2.12
892.634	0.12
893.369	-1.88
894.104	-0.88
894.839	0.12
895.574	-0.88
896.309	1.12
897.044	-0.88
897.779	1.12
898.514	-2.88
899.248	0.12
899.983	-0.88
900.717	2.12
901.452	0.12
902.186	2.12
902.92	1.12
903.654	-0.88
904.389	0.12
905.123	0.12
905.857	-0.88
906.59	1.12
907.324	0.12
908.058	1.12
908.792	0.12
909.525	1.12
910.259	-0.88
910.992	0.12
911.726	1.12
912.459	1.12
913.192	-1.88
913.925	1.12
914.658	0.12
915.391	1.12
916.124	-0.88
916.857	-0.88
917.59	-0.88
918.323	0.12
919.055	0.12
919.788	0.12
920.521	1.12
921.253	0.12
921.985	-0.88
922.718	0.12
923.45	0.12
924.182	1.12
924.914	-0.88
925.646	0.12
926.378	-0.88
927.11	1.12
927.841	-0.88
928.573	-0.88
929.305	-2.88
930.036	-0.88
930.768	0.12
931.499	0.12
932.23	-1.88
932.962	-0.88
933.693	-2.88
934.424	0.12
935.155	-0.88
935.886	-0.88
936.617	-2.88
937.348	-1.88
938.078	-0.88
938.809	-0.88
939.54	2.12
940.27	0.12
941.001	0.12
941.731	-0.88
942.461	1.12
943.191	0.12
943.922	-1.88
944.652	-0.88
945.382	-0.88
946.112	-1.88
946.841	0.12
947.571	-1.88
948.301	1.12
949.031	-0.88
949.76	-0.88
950.49	-1.88
951.219	-0.88
951.948	0.12
952.678	2.12
953.407	1.12
954.136	1.12
954.865	1.12
955.594	1.12
956.323	0.12
957.052	-1.88
957.78	-0.88
958.509	0.12
959.238	-0.88
959.966	2.12
960.695	0.12
961.423	-0.88
962.151	-0.88
962.88	-1.88
963.608	0.12
964.336	0.12
965.064	-0.88
965.792	-0.88
966.52	-2.88
967.247	3.12
967.975	0.12
968.703	3.12
969.43	1.12
970.158	-0.88
970.885	1.12
971.613	1.12
972.34	2.12
973.067	1.12
973.794	0.12
974.521	0.12
975.248	1.12
975.975	1.12
976.702	-1.88
977.429	0.12
978.156	0.12
978.882	0.12
979.609	1.12
980.335	0.12
981.062	0.12
981.788	-1.88
982.514	0.12
983.24	1.12
983.967	0.12
984.693	-0.88
985.419	0.12
986.144	1.12
986.87	-0.88
987.596	0.12
988.322	-0.88
989.047	0.12
989.773	0.12
990.498	-0.88
991.224	-0.88
991.949	-0.88
992.674	1.12
993.399	0.12
994.124	-0.88
994.849	-2.88
995.574	-1.88
996.299	0.12
997.024	3.12
997.749	1.12
998.473	0.12
999.198	2.12
999.922	1.12
1000.647	-1.88
1001.371	3.12
1002.095	-1.88
1002.82	-1.88
1003.544	0.12
1004.268	0.12
1004.992	-0.88
1005.716	0.12
1006.439	2.12
1007.163	2.12
1007.887	0.12
1008.611	-0.88
1009.334	1.12
1010.058	-0.88
1010.781	-0.88
1011.504	0.12
1012.228	-0.88
1012.951	0.12
1013.674	-2.88
1014.397	3.12
1015.12	0.12
