节点500_285_QEPB04081__691__15-07-02-870.txt的数据

Date: Wed Nov 12 15:07:02 CST 2025
User: PC
Spectrometer: QEPB0408
触发模式: 0
积分时间 (秒): 1.000000E-2
Scans to average: 1
启用暗噪声校正: true
启用非线性校正: false
滑动平均宽度: 0
X轴模式: Wavelengths
Number of Pixels in Spectrum: 1044
>>>>>Begin Spectral Data<<<<<
220.843	-0.5
221.644	0.5
222.444	-1.5
223.244	0.5
224.045	0.5
224.845	0.5
225.645	0.5
226.445	2.5
227.245	1.5
228.045	2.5
228.845	3.5
229.645	2.5
230.444	2.5
231.244	0.5
232.043	3.5
232.843	3.5
233.642	1.5
234.442	4.5
235.241	2.5
236.04	4.5
236.839	1.5
237.638	1.5
238.437	4.5
239.236	5.5
240.035	5.5
240.833	3.5
241.632	2.5
242.43	2.5
243.229	2.5
244.027	5.5
244.826	3.5
245.624	6.5
246.422	3.5
247.22	5.5
248.018	2.5
248.816	3.5
249.614	5.5
250.412	4.5
251.21	6.5
252.007	7.5
252.805	6.5
253.602	2.5
254.4	4.5
255.197	8.5
255.994	8.5
256.791	8.5
257.589	8.5
258.386	7.5
259.183	7.5
259.979	9.5
260.776	6.5
261.573	10.5
262.37	9.5
263.166	8.5
263.963	9.5
264.759	10.5
265.556	7.5
266.352	12.5
267.148	9.5
267.944	12.5
268.74	9.5
269.536	10.5
270.332	13.5
271.128	12.5
271.924	13.5
272.719	12.5
273.515	12.5
274.311	13.5
275.106	17.5
275.901	16.5
276.697	15.5
277.492	15.5
278.287	17.5
279.082	15.5
279.877	15.5
280.672	14.5
281.467	17.5
282.262	15.5
283.056	16.5
283.851	18.5
284.646	17.5
285.44	17.5
286.234	16.5
287.029	19.5
287.823	15.5
288.617	17.5
289.411	14.5
290.205	13.5
290.999	18.5
291.793	19.5
292.587	14.5
293.381	16.5
294.174	12.5
294.968	13.5
295.761	14.5
296.555	12.5
297.348	13.5
298.141	12.5
298.935	15.5
299.728	12.5
300.521	14.5
301.314	14.5
302.107	15.5
302.899	11.5
303.692	11.5
304.485	11.5
305.277	13.5
306.07	12.5
306.862	11.5
307.655	10.5
308.447	12.5
309.239	10.5
310.031	11.5
310.823	10.5
311.615	8.5
312.407	9.5
313.199	7.5
313.991	8.5
314.783	6.5
315.574	6.5
316.366	8.5
317.157	8.5
317.949	7.5
318.74	7.5
319.531	9.5
320.322	7.5
321.113	8.5
321.904	5.5
322.695	6.5
323.486	7.5
324.277	7.5
325.068	7.5
325.858	7.5
326.649	8.5
327.439	4.5
328.23	5.5
329.02	5.5
329.81	4.5
330.6	6.5
331.391	4.5
332.181	6.5
332.971	7.5
333.76	6.5
334.55	6.5
335.34	5.5
336.13	7.5
336.919	4.5
337.709	7.5
338.498	5.5
339.287	5.5
340.077	6.5
340.866	5.5
341.655	8.5
342.444	4.5
343.233	6.5
344.022	5.5
344.811	4.5
345.6	8.5
346.388	4.5
347.177	5.5
347.965	4.5
348.754	6.5
349.542	4.5
350.33	7.5
351.119	5.5
351.907	2.5
352.695	4.5
353.483	4.5
354.271	7.5
355.059	3.5
355.846	6.5
356.634	5.5
357.422	5.5
358.209	7.5
358.997	2.5
359.784	5.5
360.571	4.5
361.359	1.5
362.146	4.5
362.933	5.5
363.72	6.5
364.507	4.5
365.294	3.5
366.081	3.5
366.867	4.5
367.654	5.5
368.44	4.5
369.227	3.5
370.013	3.5
370.8	4.5
371.586	4.5
372.372	2.5
373.158	4.5
373.944	6.5
374.73	4.5
375.516	2.5
376.302	4.5
377.088	4.5
377.873	4.5
378.659	4.5
379.445	4.5
380.23	5.5
381.015	1.5
381.801	3.5
382.586	5.5
383.371	4.5
384.156	5.5
384.941	4.5
385.726	3.5
386.511	3.5
387.296	5.5
388.08	6.5
388.865	3.5
389.649	7.5
390.434	6.5
391.218	6.5
392.003	4.5
392.787	4.5
393.571	5.5
394.355	4.5
395.139	6.5
395.923	7.5
396.707	5.5
397.491	5.5
398.274	4.5
399.058	9.5
399.842	6.5
400.625	4.5
401.408	7.5
402.192	4.5
402.975	5.5
403.758	6.5
404.541	4.5
405.324	7.5
406.107	5.5
406.89	6.5
407.673	6.5
408.456	8.5
409.238	7.5
410.021	7.5
410.803	6.5
411.586	11.5
412.368	7.5
413.151	8.5
413.933	5.5
414.715	8.5
415.497	7.5
416.279	9.5
417.061	8.5
417.843	9.5
418.624	7.5
419.406	10.5
420.188	7.5
420.969	8.5
421.751	13.5
422.532	8.5
423.313	9.5
424.095	9.5
424.876	11.5
425.657	11.5
426.438	10.5
427.219	12.5
428	9.5
428.78	11.5
429.561	10.5
430.342	13.5
431.122	14.5
431.903	14.5
432.683	12.5
433.464	13.5
434.244	15.5
435.024	13.5
435.804	17.5
436.584	19.5
437.364	17.5
438.144	18.5
438.924	23.5
439.704	19.5
440.483	21.5
441.263	23.5
442.042	26.5
442.822	27.5
443.601	26.5
444.38	28.5
445.16	29.5
445.939	31.5
446.718	37.5
447.497	40.5
448.276	43.5
449.054	50.5
449.833	52.5
450.612	53.5
451.391	63.5
452.169	62.5
452.948	73.5
453.726	81.5
454.504	93.5
455.282	95.5
456.061	108.5
456.839	120.5
457.617	134.5
458.395	150.5
459.172	165.5
459.95	185.5
460.728	199.5
461.506	229.5
462.283	252.5
463.061	281.5
463.838	312.5
464.615	352.5
465.393	396.5
466.17	431.5
466.947	479.5
467.724	548.5
468.501	591.5
469.278	656.5
470.055	733.5
470.831	810.5
471.608	897.5
472.385	995.5
473.161	1085.5
473.938	1193.5
474.714	1309.5
475.49	1444.5
476.266	1601.5
477.043	1768.5
477.819	1938.5
478.595	2122.5
479.371	2337.5
480.146	2561.5
480.922	2805.5
481.698	3078.5
482.473	3371.5
483.249	3679.5
484.024	4021.5
484.8	4390.5
485.575	4787.5
486.35	5229.5
487.126	5687.5
487.901	6210.5
488.676	6801.5
489.451	7382.5
490.225	8073.5
491	8761.5
491.775	9501.5
492.55	10310.5
493.324	11161.5
494.099	11977.5
494.873	12852.5
495.647	13845.5
496.422	14866.5
497.196	15885.5
497.97	16968.5
498.744	18026.5
499.518	18992.5
500.292	20123.5
501.066	21124.5
501.839	22057.5
502.613	22961.5
503.387	23798.5
504.16	24499.5
504.934	24950.5
505.707	25307.5
506.48	25497.5
507.253	25569.5
508.027	25592.5
508.8	25476.5
509.573	25254.5
510.346	24876.5
511.118	24295.5
511.891	23749.5
512.664	23075.5
513.437	22323.5
514.209	21532.5
514.982	20733.5
515.754	19870.5
516.526	19039.5
517.298	18307.5
518.071	17522.5
518.843	16864.5
519.615	16208.5
520.387	15618.5
521.159	14942.5
521.93	14356.5
522.702	13821.5
523.474	13285.5
524.245	12680.5
525.017	12166.5
525.788	11696.5
526.56	11163.5
527.331	10643.5
528.102	10238.5
528.873	9775.5
529.644	9305.5
530.415	8913.5
531.186	8496.5
531.957	8024.5
532.728	7666.5
533.498	7298.5
534.269	6870.5
535.039	6541.5
535.81	6161.5
536.58	5806.5
537.351	5474.5
538.121	5190.5
538.891	4919.5
539.661	4682.5
540.431	4422.5
541.201	4158.5
541.971	3947.5
542.741	3745.5
543.51	3537.5
544.28	3365.5
545.05	3239.5
545.819	3073.5
546.588	2902.5
547.358	2762.5
548.127	2629.5
548.896	2504.5
549.665	2382.5
550.434	2231.5
551.203	2122.5
551.972	2029.5
552.741	1908.5
553.51	1814.5
554.278	1703.5
555.047	1600.5
555.815	1531.5
556.584	1421.5
557.352	1363.5
558.121	1290.5
558.889	1225.5
559.657	1148.5
560.425	1082.5
561.193	1020.5
561.961	962.5
562.729	904.5
563.496	863.5
564.264	798.5
565.032	774.5
565.799	726.5
566.567	691.5
567.334	658.5
568.101	620.5
568.869	575.5
569.636	553.5
570.403	514.5
571.17	482.5
571.937	452.5
572.704	437.5
573.471	406.5
574.237	393.5
575.004	354.5
575.771	340.5
576.537	317.5
577.303	304.5
578.07	287.5
578.836	273.5
579.602	253.5
580.368	236.5
581.134	230.5
581.9	219.5
582.666	211.5
583.432	192.5
584.198	185.5
584.964	177.5
585.729	162.5
586.495	154.5
587.26	144.5
588.025	144.5
588.791	132.5
589.556	127.5
590.321	120.5
591.086	112.5
591.851	107.5
592.616	104.5
593.381	97.5
594.146	90.5
594.911	86.5
595.675	85.5
596.44	78.5
597.204	76.5
597.969	69.5
598.733	68.5
599.497	69.5
600.261	64.5
601.025	60.5
601.79	54.5
602.553	57.5
603.317	53.5
604.081	45.5
604.845	45.5
605.609	48.5
606.372	44.5
607.136	42.5
607.899	39.5
608.662	38.5
609.426	36.5
610.189	32.5
610.952	32.5
611.715	34.5
612.478	33.5
613.241	32.5
614.004	33.5
614.767	26.5
615.529	28.5
616.292	27.5
617.055	24.5
617.817	24.5
618.579	23.5
619.342	22.5
620.104	21.5
620.866	21.5
621.628	21.5
622.39	18.5
623.152	16.5
623.914	18.5
624.676	18.5
625.438	17.5
626.199	17.5
626.961	17.5
627.722	18.5
628.484	17.5
629.245	14.5
630.006	14.5
630.768	13.5
631.529	13.5
632.29	10.5
633.051	11.5
633.812	12.5
634.573	12.5
635.333	11.5
636.094	12.5
636.855	9.5
637.615	13.5
638.376	8.5
639.136	9.5
639.896	7.5
640.657	11.5
641.417	8.5
642.177	8.5
642.937	9.5
643.697	6.5
644.457	7.5
645.216	8.5
645.976	7.5
646.736	7.5
647.495	7.5
648.255	6.5
649.014	6.5
649.774	7.5
650.533	7.5
651.292	6.5
652.051	6.5
652.81	6.5
653.569	6.5
654.328	5.5
655.087	7.5
655.846	3.5
656.604	5.5
657.363	7.5
658.121	4.5
658.88	5.5
659.638	3.5
660.397	5.5
661.155	7.5
661.913	5.5
662.671	4.5
663.429	6.5
664.187	4.5
664.945	4.5
665.703	6.5
666.46	3.5
667.218	2.5
667.976	4.5
668.733	4.5
669.49	6.5
670.248	4.5
671.005	3.5
671.762	5.5
672.519	2.5
673.276	2.5
674.033	3.5
674.79	3.5
675.547	4.5
676.304	4.5
677.06	2.5
677.817	2.5
678.574	3.5
679.33	4.5
680.086	4.5
680.843	5.5
681.599	4.5
682.355	2.5
683.111	3.5
683.867	3.5
684.623	4.5
685.379	4.5
686.135	2.5
686.89	2.5
687.646	3.5
688.402	0.5
689.157	3.5
689.912	4.5
690.668	2.5
691.423	4.5
692.178	1.5
692.933	5.5
693.688	2.5
694.443	2.5
695.198	3.5
695.953	3.5
696.708	4.5
697.462	0.5
698.217	5.5
698.972	3.5
699.726	2.5
700.48	3.5
701.235	3.5
701.989	4.5
702.743	1.5
703.497	2.5
704.251	1.5
705.005	2.5
705.759	2.5
706.513	4.5
707.266	2.5
708.02	2.5
708.774	4.5
709.527	4.5
710.28	3.5
711.034	2.5
711.787	2.5
712.54	3.5
713.293	0.5
714.046	6.5
714.799	1.5
715.552	2.5
716.305	3.5
717.058	1.5
717.81	3.5
718.563	2.5
719.315	1.5
720.068	4.5
720.82	5.5
721.573	2.5
722.325	0.5
723.077	1.5
723.829	3.5
724.581	-0.5
725.333	1.5
726.085	1.5
726.836	3.5
727.588	1.5
728.34	4.5
729.091	2.5
729.843	3.5
730.594	5.5
731.346	2.5
732.097	5.5
732.848	2.5
733.599	2.5
734.35	2.5
735.101	2.5
735.852	3.5
736.603	4.5
737.354	1.5
738.104	4.5
738.855	4.5
739.605	2.5
740.356	3.5
741.106	3.5
741.856	3.5
742.607	5.5
743.357	4.5
744.107	3.5
744.857	6.5
745.607	2.5
746.357	3.5
747.106	1.5
747.856	4.5
748.606	7.5
749.355	2.5
750.105	5.5
750.854	1.5
751.603	4.5
752.353	6.5
753.102	5.5
753.851	4.5
754.6	4.5
755.349	4.5
756.098	1.5
756.847	6.5
757.595	5.5
758.344	4.5
759.093	3.5
759.841	2.5
760.589	5.5
761.338	3.5
762.086	4.5
762.834	5.5
763.582	6.5
764.331	4.5
765.079	6.5
765.826	5.5
766.574	4.5
767.322	5.5
768.07	7.5
768.817	7.5
769.565	8.5
770.312	4.5
771.06	6.5
771.807	6.5
772.554	7.5
773.302	10.5
774.049	3.5
774.796	6.5
775.543	6.5
776.29	5.5
777.036	8.5
777.783	7.5
778.53	8.5
779.276	6.5
780.023	9.5
780.769	5.5
781.516	4.5
782.262	7.5
783.008	6.5
783.754	7.5
784.5	8.5
785.246	7.5
785.992	7.5
786.738	7.5
787.484	8.5
788.23	8.5
788.975	5.5
789.721	5.5
790.466	7.5
791.212	7.5
791.957	7.5
792.702	10.5
793.447	7.5
794.193	7.5
794.938	5.5
795.683	7.5
796.427	6.5
797.172	6.5
797.917	6.5
798.662	7.5
799.406	6.5
800.151	5.5
800.895	5.5
801.64	6.5
802.384	5.5
803.128	8.5
803.872	4.5
804.616	6.5
805.36	5.5
806.104	6.5
806.848	9.5
807.592	4.5
808.336	6.5
809.079	3.5
809.823	7.5
810.566	4.5
811.31	6.5
812.053	5.5
812.796	5.5
813.539	3.5
814.283	5.5
815.026	2.5
815.769	2.5
816.511	5.5
817.254	3.5
817.997	5.5
818.74	2.5
819.482	5.5
820.225	4.5
820.967	3.5
821.71	2.5
822.452	2.5
823.194	4.5
823.936	6.5
824.678	1.5
825.42	3.5
826.162	3.5
826.904	1.5
827.646	3.5
828.388	4.5
829.129	4.5
829.871	3.5
830.612	4.5
831.354	2.5
832.095	2.5
832.836	2.5
833.577	3.5
834.319	4.5
835.06	3.5
835.801	4.5
836.542	2.5
837.282	3.5
838.023	4.5
838.764	0.5
839.504	1.5
840.245	1.5
840.985	4.5
841.726	3.5
842.466	1.5
843.206	3.5
843.946	3.5
844.687	2.5
845.427	4.5
846.166	3.5
846.906	4.5
847.646	1.5
848.386	2.5
849.125	5.5
849.865	2.5
850.605	3.5
851.344	2.5
852.083	1.5
852.823	1.5
853.562	4.5
854.301	1.5
855.04	2.5
855.779	1.5
856.518	3.5
857.257	-0.5
857.995	3.5
858.734	2.5
859.473	4.5
860.211	3.5
860.95	1.5
861.688	2.5
862.426	3.5
863.165	3.5
863.903	1.5
864.641	1.5
865.379	1.5
866.117	3.5
866.855	0.5
867.593	0.5
868.33	1.5
869.068	0.5
869.806	2.5
870.543	1.5
871.28	1.5
872.018	0.5
872.755	2.5
873.492	0.5
874.229	2.5
874.967	2.5
875.703	0.5
876.44	-0.5
877.177	-0.5
877.914	1.5
878.651	-0.5
879.387	1.5
880.124	-0.5
880.86	2.5
881.597	1.5
882.333	-1.5
883.069	0.5
883.806	1.5
884.542	0.5
885.278	0.5
886.014	-1.5
886.749	0.5
887.485	1.5
888.221	-0.5
888.957	0.5
889.692	0.5
890.428	0.5
891.163	-0.5
891.899	3.5
892.634	0.5
893.369	2.5
894.104	0.5
894.839	0.5
895.574	-0.5
896.309	1.5
897.044	0.5
897.779	-0.5
898.514	4.5
899.248	1.5
899.983	-0.5
900.717	1.5
901.452	0.5
902.186	-0.5
902.92	1.5
903.654	-0.5
904.389	-0.5
905.123	-1.5
905.857	1.5
906.59	0.5
907.324	0.5
908.058	-1.5
908.792	1.5
909.525	-0.5
910.259	-0.5
910.992	1.5
911.726	0.5
912.459	-1.5
913.192	-0.5
913.925	2.5
914.658	-0.5
915.391	2.5
916.124	-0.5
916.857	-2.5
917.59	1.5
918.323	1.5
919.055	1.5
919.788	1.5
920.521	0.5
921.253	1.5
921.985	0.5
922.718	0.5
923.45	0.5
924.182	0.5
924.914	-0.5
925.646	-1.5
926.378	-0.5
927.11	0.5
927.841	0.5
928.573	0.5
929.305	0.5
930.036	-1.5
930.768	-0.5
931.499	-0.5
932.23	0.5
932.962	-0.5
933.693	2.5
934.424	-0.5
935.155	-0.5
935.886	-2.5
936.617	1.5
937.348	-0.5
938.078	1.5
938.809	0.5
939.54	0.5
940.27	-2.5
941.001	1.5
941.731	-0.5
942.461	-0.5
943.191	0.5
943.922	0.5
944.652	-0.5
945.382	1.5
946.112	-2.5
946.841	-0.5
947.571	-0.5
948.301	-1.5
949.031	-0.5
949.76	1.5
950.49	0.5
951.219	0.5
951.948	-2.5
952.678	0.5
953.407	-0.5
954.136	-0.5
954.865	-0.5
955.594	-0.5
956.323	0.5
957.052	-1.5
957.78	-0.5
958.509	0.5
959.238	0.5
959.966	1.5
960.695	-0.5
961.423	-0.5
962.151	-1.5
962.88	2.5
963.608	-1.5
964.336	-2.5
965.064	-1.5
965.792	-0.5
966.52	-0.5
967.247	0.5
967.975	0.5
968.703	-0.5
969.43	0.5
970.158	-1.5
970.885	-2.5
971.613	1.5
972.34	-1.5
973.067	-1.5
973.794	-1.5
974.521	-0.5
975.248	-0.5
975.975	-1.5
976.702	2.5
977.429	-0.5
978.156	-0.5
978.882	0.5
979.609	0.5
980.335	1.5
981.062	-1.5
981.788	1.5
982.514	-1.5
983.24	-1.5
983.967	0.5
984.693	-1.5
985.419	1.5
986.144	0.5
986.87	0.5
987.596	-0.5
988.322	-1.5
989.047	1.5
989.773	-2.5
990.498	-0.5
991.224	-0.5
991.949	-1.5
992.674	-0.5
993.399	-0.5
994.124	-0.5
994.849	-0.5
995.574	0.5
996.299	-0.5
997.024	-0.5
997.749	0.5
998.473	-1.5
999.198	0.5
999.922	-2.5
1000.647	-0.5
1001.371	-0.5
1002.095	-0.5
1002.82	-0.5
1003.544	-0.5
1004.268	-2.5
1004.992	1.5
1005.716	0.5
1006.439	-1.5
1007.163	1.5
1007.887	2.5
1008.611	-1.5
1009.334	1.5
1010.058	-0.5
1010.781	0.5
1011.504	-0.5
1012.228	0.5
1012.951	1.5
1013.674	-0.5
1014.397	-0.5
1015.12	1.5
