节点500_285_QEPB04081__218__14-59-11-043.txt的数据

Date: Wed Nov 12 14:59:11 CST 2025
User: PC
Spectrometer: QEPB0408
触发模式: 0
积分时间 (秒): 1.000000E-2
Scans to average: 1
启用暗噪声校正: true
启用非线性校正: false
滑动平均宽度: 0
X轴模式: Wavelengths
Number of Pixels in Spectrum: 1044
>>>>>Begin Spectral Data<<<<<
220.843	2.5
221.644	4.5
222.444	3.5
223.244	2.5
224.045	1.5
224.845	3.5
225.645	4.5
226.445	0.5
227.245	5.5
228.045	2.5
228.845	3.5
229.645	2.5
230.444	2.5
231.244	5.5
232.043	5.5
232.843	3.5
233.642	5.5
234.442	3.5
235.241	4.5
236.04	4.5
236.839	4.5
237.638	2.5
238.437	5.5
239.236	4.5
240.035	4.5
240.833	7.5
241.632	7.5
242.43	5.5
243.229	5.5
244.027	7.5
244.826	5.5
245.624	3.5
246.422	6.5
247.22	7.5
248.018	7.5
248.816	8.5
249.614	5.5
250.412	8.5
251.21	6.5
252.007	7.5
252.805	8.5
253.602	9.5
254.4	5.5
255.197	9.5
255.994	10.5
256.791	10.5
257.589	11.5
258.386	10.5
259.183	10.5
259.979	13.5
260.776	9.5
261.573	10.5
262.37	10.5
263.166	12.5
263.963	13.5
264.759	13.5
265.556	14.5
266.352	14.5
267.148	14.5
267.944	14.5
268.74	13.5
269.536	15.5
270.332	15.5
271.128	17.5
271.924	16.5
272.719	19.5
273.515	21.5
274.311	17.5
275.106	19.5
275.901	18.5
276.697	20.5
277.492	19.5
278.287	16.5
279.082	17.5
279.877	19.5
280.672	20.5
281.467	19.5
282.262	20.5
283.056	18.5
283.851	20.5
284.646	18.5
285.44	20.5
286.234	20.5
287.029	19.5
287.823	19.5
288.617	19.5
289.411	19.5
290.205	20.5
290.999	18.5
291.793	19.5
292.587	19.5
293.381	20.5
294.174	20.5
294.968	18.5
295.761	18.5
296.555	14.5
297.348	17.5
298.141	16.5
298.935	17.5
299.728	16.5
300.521	13.5
301.314	16.5
302.107	16.5
302.899	13.5
303.692	15.5
304.485	14.5
305.277	14.5
306.07	13.5
306.862	14.5
307.655	14.5
308.447	10.5
309.239	9.5
310.031	14.5
310.823	12.5
311.615	13.5
312.407	13.5
313.199	12.5
313.991	10.5
314.783	9.5
315.574	11.5
316.366	10.5
317.157	10.5
317.949	9.5
318.74	10.5
319.531	10.5
320.322	8.5
321.113	8.5
321.904	9.5
322.695	7.5
323.486	8.5
324.277	9.5
325.068	8.5
325.858	7.5
326.649	9.5
327.439	7.5
328.23	7.5
329.02	6.5
329.81	7.5
330.6	5.5
331.391	8.5
332.181	6.5
332.971	7.5
333.76	8.5
334.55	6.5
335.34	8.5
336.13	7.5
336.919	7.5
337.709	9.5
338.498	6.5
339.287	8.5
340.077	8.5
340.866	5.5
341.655	7.5
342.444	5.5
343.233	5.5
344.022	8.5
344.811	8.5
345.6	9.5
346.388	7.5
347.177	7.5
347.965	6.5
348.754	8.5
349.542	5.5
350.33	6.5
351.119	7.5
351.907	6.5
352.695	5.5
353.483	5.5
354.271	9.5
355.059	7.5
355.846	6.5
356.634	5.5
357.422	5.5
358.209	6.5
358.997	6.5
359.784	8.5
360.571	4.5
361.359	6.5
362.146	5.5
362.933	5.5
363.72	7.5
364.507	4.5
365.294	8.5
366.081	6.5
366.867	7.5
367.654	6.5
368.44	5.5
369.227	6.5
370.013	5.5
370.8	4.5
371.586	6.5
372.372	4.5
373.158	6.5
373.944	6.5
374.73	5.5
375.516	7.5
376.302	6.5
377.088	6.5
377.873	4.5
378.659	6.5
379.445	6.5
380.23	7.5
381.015	5.5
381.801	6.5
382.586	8.5
383.371	7.5
384.156	8.5
384.941	7.5
385.726	6.5
386.511	6.5
387.296	4.5
388.08	5.5
388.865	5.5
389.649	7.5
390.434	4.5
391.218	5.5
392.003	7.5
392.787	5.5
393.571	8.5
394.355	6.5
395.139	5.5
395.923	9.5
396.707	5.5
397.491	8.5
398.274	7.5
399.058	6.5
399.842	7.5
400.625	7.5
401.408	7.5
402.192	8.5
402.975	8.5
403.758	7.5
404.541	7.5
405.324	9.5
406.107	10.5
406.89	8.5
407.673	9.5
408.456	10.5
409.238	10.5
410.021	7.5
410.803	9.5
411.586	9.5
412.368	10.5
413.151	9.5
413.933	9.5
414.715	12.5
415.497	9.5
416.279	7.5
417.061	11.5
417.843	8.5
418.624	10.5
419.406	10.5
420.188	12.5
420.969	12.5
421.751	10.5
422.532	11.5
423.313	12.5
424.095	10.5
424.876	11.5
425.657	13.5
426.438	12.5
427.219	13.5
428	12.5
428.78	13.5
429.561	14.5
430.342	16.5
431.122	13.5
431.903	15.5
432.683	16.5
433.464	17.5
434.244	17.5
435.024	18.5
435.804	18.5
436.584	17.5
437.364	18.5
438.144	20.5
438.924	21.5
439.704	20.5
440.483	22.5
441.263	23.5
442.042	24.5
442.822	25.5
443.601	29.5
444.38	28.5
445.16	33.5
445.939	34.5
446.718	35.5
447.497	41.5
448.276	42.5
449.054	46.5
449.833	50.5
450.612	52.5
451.391	57.5
452.169	62.5
452.948	67.5
453.726	76.5
454.504	81.5
455.282	89.5
456.061	98.5
456.839	104.5
457.617	114.5
458.395	132.5
459.172	149.5
459.95	160.5
460.728	181.5
461.506	198.5
462.283	228.5
463.061	258.5
463.838	270.5
464.615	318.5
465.393	347.5
466.17	387.5
466.947	434.5
467.724	484.5
468.501	548.5
469.278	601.5
470.055	671.5
470.831	752.5
471.608	835.5
472.385	936.5
473.161	1037.5
473.938	1156.5
474.714	1275.5
475.49	1410.5
476.266	1554.5
477.043	1733.5
477.819	1907.5
478.595	2115.5
479.371	2349.5
480.146	2603.5
480.922	2846.5
481.698	3164.5
482.473	3490.5
483.249	3845.5
484.024	4258.5
484.8	4674.5
485.575	5153.5
486.35	5682.5
487.126	6238.5
487.901	6904.5
488.676	7533.5
489.451	8236.5
490.225	9093.5
491	9858.5
491.775	10837.5
492.55	11841.5
493.324	12839.5
494.099	13865.5
494.873	14966.5
495.647	16116.5
496.422	17316.5
497.196	18533.5
497.97	19798.5
498.744	21055.5
499.518	22190.5
500.292	23378.5
501.066	24486.5
501.839	25410.5
502.613	26279.5
503.387	27130.5
504.16	27614.5
504.934	27898.5
505.707	28067.5
506.48	28019.5
507.253	27817.5
508.027	27636.5
508.8	27148.5
509.573	26597.5
510.346	25952.5
511.118	25155.5
511.891	24264.5
512.664	23414.5
513.437	22507.5
514.209	21487.5
514.982	20598.5
515.754	19629.5
516.526	18751.5
517.298	17914.5
518.071	17116.5
518.843	16519.5
519.615	15865.5
520.387	15241.5
521.159	14634.5
521.93	14079.5
522.702	13469.5
523.474	12935.5
524.245	12357.5
525.017	11841.5
525.788	11343.5
526.56	10879.5
527.331	10344.5
528.102	9856.5
528.873	9383.5
529.644	8945.5
530.415	8468.5
531.186	8028.5
531.957	7620.5
532.728	7225.5
533.498	6817.5
534.269	6446.5
535.039	6079.5
535.81	5760.5
536.58	5415.5
537.351	5137.5
538.121	4856.5
538.891	4563.5
539.661	4348.5
540.431	4079.5
541.201	3849.5
541.971	3659.5
542.741	3463.5
543.51	3293.5
544.28	3156.5
545.05	2989.5
545.819	2832.5
546.588	2709.5
547.358	2560.5
548.127	2448.5
548.896	2308.5
549.665	2187.5
550.434	2069.5
551.203	1956.5
551.972	1860.5
552.741	1739.5
553.51	1667.5
554.278	1569.5
555.047	1481.5
555.815	1409.5
556.584	1314.5
557.352	1259.5
558.121	1180.5
558.889	1111.5
559.657	1047.5
560.425	996.5
561.193	937.5
561.961	878.5
562.729	833.5
563.496	786.5
564.264	739.5
565.032	695.5
565.799	653.5
566.567	625.5
567.334	590.5
568.101	560.5
568.869	532.5
569.636	490.5
570.403	469.5
571.17	428.5
571.937	420.5
572.704	395.5
573.471	373.5
574.237	349.5
575.004	333.5
575.771	316.5
576.537	290.5
577.303	276.5
578.07	261.5
578.836	240.5
579.602	229.5
580.368	218.5
581.134	204.5
581.9	195.5
582.666	188.5
583.432	181.5
584.198	165.5
584.964	162.5
585.729	149.5
586.495	148.5
587.26	134.5
588.025	130.5
588.791	126.5
589.556	114.5
590.321	110.5
591.086	107.5
591.851	98.5
592.616	91.5
593.381	90.5
594.146	86.5
594.911	78.5
595.675	79.5
596.44	75.5
597.204	69.5
597.969	66.5
598.733	68.5
599.497	60.5
600.261	60.5
601.025	55.5
601.79	54.5
602.553	51.5
603.317	48.5
604.081	46.5
604.845	48.5
605.609	43.5
606.372	38.5
607.136	38.5
607.899	37.5
608.662	38.5
609.426	38.5
610.189	35.5
610.952	32.5
611.715	30.5
612.478	33.5
613.241	28.5
614.004	30.5
614.767	28.5
615.529	29.5
616.292	29.5
617.055	25.5
617.817	21.5
618.579	23.5
619.342	22.5
620.104	25.5
620.866	23.5
621.628	22.5
622.39	17.5
623.152	20.5
623.914	15.5
624.676	18.5
625.438	18.5
626.199	15.5
626.961	16.5
627.722	16.5
628.484	12.5
629.245	15.5
630.006	13.5
630.768	14.5
631.529	11.5
632.29	11.5
633.051	17.5
633.812	13.5
634.573	14.5
635.333	10.5
636.094	13.5
636.855	11.5
637.615	9.5
638.376	9.5
639.136	9.5
639.896	11.5
640.657	11.5
641.417	10.5
642.177	10.5
642.937	9.5
643.697	10.5
644.457	8.5
645.216	8.5
645.976	9.5
646.736	10.5
647.495	7.5
648.255	7.5
649.014	8.5
649.774	6.5
650.533	9.5
651.292	6.5
652.051	7.5
652.81	7.5
653.569	4.5
654.328	5.5
655.087	7.5
655.846	8.5
656.604	9.5
657.363	9.5
658.121	7.5
658.88	5.5
659.638	7.5
660.397	6.5
661.155	5.5
661.913	7.5
662.671	6.5
663.429	7.5
664.187	3.5
664.945	6.5
665.703	6.5
666.46	6.5
667.218	5.5
667.976	5.5
668.733	6.5
669.49	4.5
670.248	5.5
671.005	7.5
671.762	5.5
672.519	5.5
673.276	5.5
674.033	4.5
674.79	5.5
675.547	6.5
676.304	6.5
677.06	5.5
677.817	4.5
678.574	5.5
679.33	6.5
680.086	7.5
680.843	6.5
681.599	5.5
682.355	4.5
683.111	5.5
683.867	3.5
684.623	6.5
685.379	6.5
686.135	8.5
686.89	8.5
687.646	4.5
688.402	6.5
689.157	3.5
689.912	4.5
690.668	3.5
691.423	5.5
692.178	7.5
692.933	3.5
693.688	7.5
694.443	5.5
695.198	4.5
695.953	7.5
696.708	3.5
697.462	4.5
698.217	4.5
698.972	2.5
699.726	5.5
700.48	3.5
701.235	4.5
701.989	1.5
702.743	3.5
703.497	3.5
704.251	2.5
705.005	4.5
705.759	5.5
706.513	4.5
707.266	2.5
708.02	5.5
708.774	7.5
709.527	5.5
710.28	4.5
711.034	2.5
711.787	4.5
712.54	4.5
713.293	6.5
714.046	2.5
714.799	3.5
715.552	6.5
716.305	2.5
717.058	4.5
717.81	4.5
718.563	6.5
719.315	5.5
720.068	4.5
720.82	3.5
721.573	5.5
722.325	5.5
723.077	4.5
723.829	5.5
724.581	5.5
725.333	3.5
726.085	6.5
726.836	6.5
727.588	3.5
728.34	5.5
729.091	5.5
729.843	6.5
730.594	4.5
731.346	7.5
732.097	6.5
732.848	5.5
733.599	6.5
734.35	3.5
735.101	3.5
735.852	6.5
736.603	4.5
737.354	6.5
738.104	3.5
738.855	6.5
739.605	5.5
740.356	5.5
741.106	4.5
741.856	5.5
742.607	8.5
743.357	4.5
744.107	7.5
744.857	6.5
745.607	6.5
746.357	4.5
747.106	6.5
747.856	7.5
748.606	4.5
749.355	6.5
750.105	6.5
750.854	7.5
751.603	5.5
752.353	8.5
753.102	7.5
753.851	6.5
754.6	6.5
755.349	6.5
756.098	6.5
756.847	4.5
757.595	8.5
758.344	9.5
759.093	3.5
759.841	7.5
760.589	6.5
761.338	6.5
762.086	6.5
762.834	8.5
763.582	7.5
764.331	7.5
765.079	8.5
765.826	9.5
766.574	6.5
767.322	9.5
768.07	9.5
768.817	8.5
769.565	10.5
770.312	6.5
771.06	9.5
771.807	9.5
772.554	9.5
773.302	9.5
774.049	10.5
774.796	7.5
775.543	7.5
776.29	9.5
777.036	10.5
777.783	9.5
778.53	9.5
779.276	8.5
780.023	10.5
780.769	8.5
781.516	9.5
782.262	9.5
783.008	9.5
783.754	10.5
784.5	12.5
785.246	12.5
785.992	12.5
786.738	9.5
787.484	9.5
788.23	10.5
788.975	10.5
789.721	7.5
790.466	9.5
791.212	13.5
791.957	8.5
792.702	10.5
793.447	8.5
794.193	9.5
794.938	8.5
795.683	6.5
796.427	10.5
797.172	11.5
797.917	10.5
798.662	7.5
799.406	9.5
800.151	9.5
800.895	9.5
801.64	9.5
802.384	8.5
803.128	8.5
803.872	8.5
804.616	7.5
805.36	6.5
806.104	5.5
806.848	6.5
807.592	5.5
808.336	6.5
809.079	5.5
809.823	6.5
810.566	4.5
811.31	5.5
812.053	6.5
812.796	7.5
813.539	4.5
814.283	7.5
815.026	4.5
815.769	5.5
816.511	8.5
817.254	5.5
817.997	4.5
818.74	5.5
819.482	8.5
820.225	6.5
820.967	7.5
821.71	6.5
822.452	6.5
823.194	6.5
823.936	6.5
824.678	5.5
825.42	4.5
826.162	7.5
826.904	5.5
827.646	5.5
828.388	5.5
829.129	4.5
829.871	4.5
830.612	4.5
831.354	5.5
832.095	5.5
832.836	4.5
833.577	3.5
834.319	4.5
835.06	3.5
835.801	3.5
836.542	7.5
837.282	3.5
838.023	4.5
838.764	4.5
839.504	5.5
840.245	4.5
840.985	3.5
841.726	3.5
842.466	3.5
843.206	1.5
843.946	2.5
844.687	2.5
845.427	3.5
846.166	1.5
846.906	4.5
847.646	5.5
848.386	3.5
849.125	5.5
849.865	3.5
850.605	4.5
851.344	5.5
852.083	4.5
852.823	4.5
853.562	3.5
854.301	2.5
855.04	1.5
855.779	4.5
856.518	2.5
857.257	2.5
857.995	2.5
858.734	1.5
859.473	3.5
860.211	3.5
860.95	1.5
861.688	3.5
862.426	2.5
863.165	3.5
863.903	1.5
864.641	5.5
865.379	1.5
866.117	1.5
866.855	0.5
867.593	1.5
868.33	2.5
869.068	4.5
869.806	2.5
870.543	2.5
871.28	0.5
872.018	4.5
872.755	1.5
873.492	1.5
874.229	0.5
874.967	2.5
875.703	1.5
876.44	1.5
877.177	3.5
877.914	2.5
878.651	2.5
879.387	3.5
880.124	0.5
880.86	2.5
881.597	4.5
882.333	1.5
883.069	2.5
883.806	1.5
884.542	2.5
885.278	3.5
886.014	1.5
886.749	2.5
887.485	2.5
888.221	2.5
888.957	3.5
889.692	2.5
890.428	3.5
891.163	3.5
891.899	1.5
892.634	2.5
893.369	1.5
894.104	1.5
894.839	1.5
895.574	1.5
896.309	2.5
897.044	1.5
897.779	-0.5
898.514	0.5
899.248	-0.5
899.983	2.5
900.717	-0.5
901.452	0.5
902.186	3.5
902.92	0.5
903.654	0.5
904.389	1.5
905.123	2.5
905.857	2.5
906.59	1.5
907.324	2.5
908.058	1.5
908.792	0.5
909.525	2.5
910.259	-2.5
910.992	2.5
911.726	-0.5
912.459	1.5
913.192	0.5
913.925	0.5
914.658	2.5
915.391	1.5
916.124	2.5
916.857	1.5
917.59	0.5
918.323	-0.5
919.055	1.5
919.788	0.5
920.521	0.5
921.253	1.5
921.985	0.5
922.718	2.5
923.45	1.5
924.182	0.5
924.914	2.5
925.646	0.5
926.378	2.5
927.11	1.5
927.841	1.5
928.573	2.5
929.305	0.5
930.036	1.5
930.768	-0.5
931.499	1.5
932.23	0.5
932.962	2.5
933.693	-0.5
934.424	1.5
935.155	2.5
935.886	0.5
936.617	1.5
937.348	2.5
938.078	2.5
938.809	1.5
939.54	0.5
940.27	2.5
941.001	0.5
941.731	2.5
942.461	1.5
943.191	1.5
943.922	0.5
944.652	1.5
945.382	3.5
946.112	2.5
946.841	2.5
947.571	1.5
948.301	0.5
949.031	2.5
949.76	1.5
950.49	3.5
951.219	-1.5
951.948	1.5
952.678	1.5
953.407	-0.5
954.136	2.5
954.865	0.5
955.594	2.5
956.323	-1.5
957.052	0.5
957.78	0.5
958.509	0.5
959.238	2.5
959.966	0.5
960.695	0.5
961.423	0.5
962.151	1.5
962.88	2.5
963.608	-1.5
964.336	-1.5
965.064	-0.5
965.792	2.5
966.52	1.5
967.247	0.5
967.975	1.5
968.703	1.5
969.43	3.5
970.158	1.5
970.885	1.5
971.613	2.5
972.34	0.5
973.067	1.5
973.794	3.5
974.521	1.5
975.248	0.5
975.975	0.5
976.702	1.5
977.429	1.5
978.156	1.5
978.882	1.5
979.609	1.5
980.335	3.5
981.062	-0.5
981.788	0.5
982.514	0.5
983.24	2.5
983.967	1.5
984.693	0.5
985.419	0.5
986.144	0.5
986.87	3.5
987.596	1.5
988.322	2.5
989.047	1.5
989.773	2.5
990.498	2.5
991.224	2.5
991.949	2.5
992.674	1.5
993.399	0.5
994.124	0.5
994.849	0.5
995.574	2.5
996.299	0.5
997.024	1.5
997.749	0.5
998.473	-1.5
999.198	0.5
999.922	-0.5
1000.647	1.5
1001.371	2.5
1002.095	-0.5
1002.82	-2.5
1003.544	-2.5
1004.268	0.5
1004.992	0.5
1005.716	3.5
1006.439	1.5
1007.163	0.5
1007.887	4.5
1008.611	0.5
1009.334	2.5
1010.058	2.5
1010.781	1.5
1011.504	3.5
1012.228	1.5
1012.951	2.5
1013.674	-0.5
1014.397	-1.5
1015.12	2.5
