节点500_285_QEPB04081__763__15-08-14-790.txt的数据

Date: Wed Nov 12 15:08:14 CST 2025
User: PC
Spectrometer: QEPB0408
触发模式: 0
积分时间 (秒): 1.000000E-2
Scans to average: 1
启用暗噪声校正: true
启用非线性校正: false
滑动平均宽度: 0
X轴模式: Wavelengths
Number of Pixels in Spectrum: 1044
>>>>>Begin Spectral Data<<<<<
220.843	0.25
221.644	2.25
222.444	1.25
223.244	3.25
224.045	2.25
224.845	1.25
225.645	-0.75
226.445	2.25
227.245	2.25
228.045	2.25
228.845	2.25
229.645	4.25
230.444	2.25
231.244	2.25
232.043	2.25
232.843	2.25
233.642	5.25
234.442	4.25
235.241	2.25
236.04	7.25
236.839	5.25
237.638	5.25
238.437	3.25
239.236	4.25
240.035	3.25
240.833	4.25
241.632	5.25
242.43	3.25
243.229	5.25
244.027	5.25
244.826	6.25
245.624	2.25
246.422	7.25
247.22	7.25
248.018	7.25
248.816	5.25
249.614	5.25
250.412	8.25
251.21	5.25
252.007	7.25
252.805	5.25
253.602	7.25
254.4	7.25
255.197	8.25
255.994	9.25
256.791	8.25
257.589	8.25
258.386	7.25
259.183	8.25
259.979	7.25
260.776	7.25
261.573	10.25
262.37	9.25
263.166	7.25
263.963	9.25
264.759	10.25
265.556	11.25
266.352	11.25
267.148	11.25
267.944	12.25
268.74	10.25
269.536	11.25
270.332	13.25
271.128	14.25
271.924	13.25
272.719	13.25
273.515	17.25
274.311	11.25
275.106	15.25
275.901	14.25
276.697	17.25
277.492	15.25
278.287	17.25
279.082	13.25
279.877	18.25
280.672	17.25
281.467	16.25
282.262	18.25
283.056	16.25
283.851	16.25
284.646	16.25
285.44	15.25
286.234	16.25
287.029	17.25
287.823	17.25
288.617	19.25
289.411	17.25
290.205	16.25
290.999	14.25
291.793	18.25
292.587	16.25
293.381	18.25
294.174	17.25
294.968	17.25
295.761	16.25
296.555	12.25
297.348	19.25
298.141	14.25
298.935	16.25
299.728	16.25
300.521	14.25
301.314	14.25
302.107	16.25
302.899	12.25
303.692	15.25
304.485	14.25
305.277	13.25
306.07	9.25
306.862	12.25
307.655	10.25
308.447	13.25
309.239	11.25
310.031	14.25
310.823	10.25
311.615	10.25
312.407	12.25
313.199	8.25
313.991	11.25
314.783	9.25
315.574	10.25
316.366	8.25
317.157	12.25
317.949	10.25
318.74	8.25
319.531	8.25
320.322	10.25
321.113	7.25
321.904	7.25
322.695	7.25
323.486	9.25
324.277	7.25
325.068	8.25
325.858	6.25
326.649	5.25
327.439	8.25
328.23	6.25
329.02	5.25
329.81	5.25
330.6	7.25
331.391	8.25
332.181	5.25
332.971	5.25
333.76	6.25
334.55	8.25
335.34	8.25
336.13	7.25
336.919	8.25
337.709	7.25
338.498	6.25
339.287	4.25
340.077	6.25
340.866	7.25
341.655	5.25
342.444	7.25
343.233	4.25
344.022	5.25
344.811	5.25
345.6	8.25
346.388	8.25
347.177	6.25
347.965	10.25
348.754	4.25
349.542	8.25
350.33	6.25
351.119	8.25
351.907	9.25
352.695	5.25
353.483	4.25
354.271	5.25
355.059	5.25
355.846	5.25
356.634	7.25
357.422	5.25
358.209	7.25
358.997	4.25
359.784	4.25
360.571	4.25
361.359	6.25
362.146	5.25
362.933	7.25
363.72	5.25
364.507	6.25
365.294	5.25
366.081	6.25
366.867	6.25
367.654	4.25
368.44	4.25
369.227	4.25
370.013	6.25
370.8	6.25
371.586	3.25
372.372	4.25
373.158	6.25
373.944	4.25
374.73	7.25
375.516	7.25
376.302	5.25
377.088	5.25
377.873	4.25
378.659	6.25
379.445	5.25
380.23	3.25
381.015	5.25
381.801	5.25
382.586	2.25
383.371	5.25
384.156	4.25
384.941	6.25
385.726	3.25
386.511	6.25
387.296	4.25
388.08	6.25
388.865	5.25
389.649	4.25
390.434	7.25
391.218	6.25
392.003	2.25
392.787	7.25
393.571	3.25
394.355	7.25
395.139	7.25
395.923	8.25
396.707	6.25
397.491	7.25
398.274	7.25
399.058	7.25
399.842	9.25
400.625	7.25
401.408	8.25
402.192	6.25
402.975	9.25
403.758	9.25
404.541	5.25
405.324	6.25
406.107	7.25
406.89	7.25
407.673	8.25
408.456	6.25
409.238	9.25
410.021	5.25
410.803	7.25
411.586	8.25
412.368	7.25
413.151	8.25
413.933	9.25
414.715	8.25
415.497	9.25
416.279	10.25
417.061	8.25
417.843	6.25
418.624	10.25
419.406	8.25
420.188	9.25
420.969	10.25
421.751	10.25
422.532	11.25
423.313	10.25
424.095	12.25
424.876	11.25
425.657	12.25
426.438	8.25
427.219	11.25
428	15.25
428.78	12.25
429.561	10.25
430.342	12.25
431.122	13.25
431.903	14.25
432.683	15.25
433.464	14.25
434.244	14.25
435.024	16.25
435.804	16.25
436.584	16.25
437.364	16.25
438.144	19.25
438.924	22.25
439.704	21.25
440.483	26.25
441.263	25.25
442.042	26.25
442.822	24.25
443.601	29.25
444.38	32.25
445.16	31.25
445.939	34.25
446.718	37.25
447.497	41.25
448.276	46.25
449.054	49.25
449.833	51.25
450.612	57.25
451.391	63.25
452.169	69.25
452.948	76.25
453.726	83.25
454.504	89.25
455.282	103.25
456.061	110.25
456.839	124.25
457.617	136.25
458.395	153.25
459.172	168.25
459.95	184.25
460.728	209.25
461.506	235.25
462.283	257.25
463.061	283.25
463.838	322.25
464.615	356.25
465.393	393.25
466.17	445.25
466.947	489.25
467.724	538.25
468.501	608.25
469.278	656.25
470.055	745.25
470.831	809.25
471.608	912.25
472.385	999.25
473.161	1107.25
473.938	1204.25
474.714	1346.25
475.49	1470.25
476.266	1614.25
477.043	1772.25
477.819	1946.25
478.595	2130.25
479.371	2314.25
480.146	2544.25
480.922	2805.25
481.698	3069.25
482.473	3353.25
483.249	3641.25
484.024	3990.25
484.8	4352.25
485.575	4730.25
486.35	5158.25
487.126	5643.25
487.901	6125.25
488.676	6700.25
489.451	7302.25
490.225	7940.25
491	8580.25
491.775	9325.25
492.55	10142.25
493.324	10925.25
494.099	11738.25
494.873	12579.25
495.647	13552.25
496.422	14479.25
497.196	15530.25
497.97	16493.25
498.744	17618.25
499.518	18661.25
500.292	19667.25
501.066	20664.25
501.839	21631.25
502.613	22558.25
503.387	23326.25
504.16	24055.25
504.934	24511.25
505.707	24803.25
506.48	25147.25
507.253	25285.25
508.027	25221.25
508.8	25123.25
509.573	24973.25
510.346	24679.25
511.118	24121.25
511.891	23644.25
512.664	22971.25
513.437	22307.25
514.209	21369.25
514.982	20692.25
515.754	19902.25
516.526	19143.25
517.298	18353.25
518.071	17556.25
518.843	16854.25
519.615	16233.25
520.387	15640.25
521.159	15011.25
521.93	14448.25
522.702	13852.25
523.474	13336.25
524.245	12710.25
525.017	12190.25
525.788	11747.25
526.56	11189.25
527.331	10736.25
528.102	10249.25
528.873	9834.25
529.644	9360.25
530.415	8957.25
531.186	8515.25
531.957	8097.25
532.728	7718.25
533.498	7366.25
534.269	6930.25
535.039	6599.25
535.81	6229.25
536.58	5894.25
537.351	5559.25
538.121	5248.25
538.891	4981.25
539.661	4684.25
540.431	4451.25
541.201	4190.25
541.971	3975.25
542.741	3768.25
543.51	3582.25
544.28	3418.25
545.05	3245.25
545.819	3082.25
546.588	2919.25
547.358	2808.25
548.127	2641.25
548.896	2508.25
549.665	2394.25
550.434	2252.25
551.203	2155.25
551.972	2033.25
552.741	1916.25
553.51	1813.25
554.278	1724.25
555.047	1646.25
555.815	1537.25
556.584	1465.25
557.352	1366.25
558.121	1303.25
558.889	1223.25
559.657	1155.25
560.425	1098.25
561.193	1053.25
561.961	974.25
562.729	931.25
563.496	883.25
564.264	831.25
565.032	793.25
565.799	735.25
566.567	701.25
567.334	667.25
568.101	633.25
568.869	589.25
569.636	557.25
570.403	521.25
571.17	486.25
571.937	461.25
572.704	435.25
573.471	418.25
574.237	392.25
575.004	373.25
575.771	352.25
576.537	325.25
577.303	309.25
578.07	288.25
578.836	280.25
579.602	263.25
580.368	241.25
581.134	225.25
581.9	220.25
582.666	207.25
583.432	198.25
584.198	192.25
584.964	175.25
585.729	163.25
586.495	154.25
587.26	150.25
588.025	148.25
588.791	133.25
589.556	129.25
590.321	121.25
591.086	110.25
591.851	107.25
592.616	102.25
593.381	99.25
594.146	93.25
594.911	91.25
595.675	85.25
596.44	83.25
597.204	74.25
597.969	72.25
598.733	66.25
599.497	67.25
600.261	65.25
601.025	62.25
601.79	58.25
602.553	53.25
603.317	50.25
604.081	52.25
604.845	46.25
605.609	47.25
606.372	46.25
607.136	41.25
607.899	44.25
608.662	38.25
609.426	40.25
610.189	35.25
610.952	37.25
611.715	32.25
612.478	33.25
613.241	29.25
614.004	32.25
614.767	30.25
615.529	29.25
616.292	27.25
617.055	28.25
617.817	23.25
618.579	26.25
619.342	25.25
620.104	24.25
620.866	23.25
621.628	22.25
622.39	20.25
623.152	22.25
623.914	20.25
624.676	20.25
625.438	18.25
626.199	15.25
626.961	15.25
627.722	17.25
628.484	16.25
629.245	16.25
630.006	17.25
630.768	13.25
631.529	14.25
632.29	15.25
633.051	11.25
633.812	14.25
634.573	14.25
635.333	13.25
636.094	10.25
636.855	11.25
637.615	11.25
638.376	10.25
639.136	10.25
639.896	12.25
640.657	8.25
641.417	7.25
642.177	8.25
642.937	10.25
643.697	9.25
644.457	11.25
645.216	9.25
645.976	6.25
646.736	10.25
647.495	8.25
648.255	9.25
649.014	8.25
649.774	8.25
650.533	5.25
651.292	5.25
652.051	8.25
652.81	6.25
653.569	9.25
654.328	6.25
655.087	6.25
655.846	8.25
656.604	7.25
657.363	8.25
658.121	5.25
658.88	6.25
659.638	7.25
660.397	5.25
661.155	5.25
661.913	4.25
662.671	7.25
663.429	3.25
664.187	7.25
664.945	4.25
665.703	5.25
666.46	5.25
667.218	6.25
667.976	5.25
668.733	6.25
669.49	5.25
670.248	7.25
671.005	5.25
671.762	5.25
672.519	4.25
673.276	4.25
674.033	3.25
674.79	4.25
675.547	5.25
676.304	2.25
677.06	5.25
677.817	3.25
678.574	3.25
679.33	4.25
680.086	4.25
680.843	4.25
681.599	3.25
682.355	5.25
683.111	4.25
683.867	4.25
684.623	7.25
685.379	5.25
686.135	4.25
686.89	3.25
687.646	2.25
688.402	2.25
689.157	6.25
689.912	3.25
690.668	4.25
691.423	2.25
692.178	3.25
692.933	4.25
693.688	5.25
694.443	4.25
695.198	5.25
695.953	5.25
696.708	5.25
697.462	1.25
698.217	4.25
698.972	3.25
699.726	4.25
700.48	7.25
701.235	3.25
701.989	4.25
702.743	4.25
703.497	3.25
704.251	5.25
705.005	2.25
705.759	5.25
706.513	3.25
707.266	2.25
708.02	3.25
708.774	3.25
709.527	6.25
710.28	2.25
711.034	5.25
711.787	3.25
712.54	4.25
713.293	1.25
714.046	5.25
714.799	3.25
715.552	2.25
716.305	4.25
717.058	3.25
717.81	4.25
718.563	2.25
719.315	2.25
720.068	3.25
720.82	0.25
721.573	2.25
722.325	3.25
723.077	5.25
723.829	3.25
724.581	1.25
725.333	4.25
726.085	3.25
726.836	4.25
727.588	3.25
728.34	5.25
729.091	6.25
729.843	2.25
730.594	4.25
731.346	0.25
732.097	5.25
732.848	3.25
733.599	4.25
734.35	2.25
735.101	3.25
735.852	3.25
736.603	4.25
737.354	3.25
738.104	3.25
738.855	4.25
739.605	5.25
740.356	2.25
741.106	5.25
741.856	5.25
742.607	4.25
743.357	3.25
744.107	4.25
744.857	5.25
745.607	2.25
746.357	6.25
747.106	3.25
747.856	3.25
748.606	6.25
749.355	5.25
750.105	5.25
750.854	5.25
751.603	6.25
752.353	3.25
753.102	6.25
753.851	2.25
754.6	5.25
755.349	5.25
756.098	6.25
756.847	4.25
757.595	6.25
758.344	4.25
759.093	6.25
759.841	3.25
760.589	6.25
761.338	5.25
762.086	5.25
762.834	5.25
763.582	6.25
764.331	6.25
765.079	7.25
765.826	7.25
766.574	6.25
767.322	7.25
768.07	7.25
768.817	9.25
769.565	7.25
770.312	5.25
771.06	8.25
771.807	6.25
772.554	8.25
773.302	7.25
774.049	5.25
774.796	7.25
775.543	5.25
776.29	9.25
777.036	9.25
777.783	7.25
778.53	9.25
779.276	5.25
780.023	8.25
780.769	9.25
781.516	9.25
782.262	9.25
783.008	9.25
783.754	9.25
784.5	7.25
785.246	10.25
785.992	8.25
786.738	9.25
787.484	8.25
788.23	7.25
788.975	10.25
789.721	9.25
790.466	6.25
791.212	9.25
791.957	6.25
792.702	6.25
793.447	8.25
794.193	8.25
794.938	8.25
795.683	6.25
796.427	5.25
797.172	6.25
797.917	8.25
798.662	6.25
799.406	7.25
800.151	7.25
800.895	11.25
801.64	7.25
802.384	6.25
803.128	9.25
803.872	4.25
804.616	8.25
805.36	5.25
806.104	9.25
806.848	5.25
807.592	5.25
808.336	7.25
809.079	6.25
809.823	8.25
810.566	7.25
811.31	6.25
812.053	5.25
812.796	6.25
813.539	6.25
814.283	5.25
815.026	6.25
815.769	4.25
816.511	3.25
817.254	4.25
817.997	5.25
818.74	4.25
819.482	3.25
820.225	6.25
820.967	6.25
821.71	5.25
822.452	5.25
823.194	4.25
823.936	6.25
824.678	3.25
825.42	5.25
826.162	3.25
826.904	2.25
827.646	5.25
828.388	4.25
829.129	6.25
829.871	2.25
830.612	4.25
831.354	1.25
832.095	2.25
832.836	5.25
833.577	2.25
834.319	4.25
835.06	3.25
835.801	4.25
836.542	1.25
837.282	4.25
838.023	5.25
838.764	5.25
839.504	6.25
840.245	3.25
840.985	1.25
841.726	4.25
842.466	2.25
843.206	4.25
843.946	4.25
844.687	2.25
845.427	2.25
846.166	3.25
846.906	4.25
847.646	2.25
848.386	4.25
849.125	3.25
849.865	2.25
850.605	4.25
851.344	2.25
852.083	1.25
852.823	1.25
853.562	2.25
854.301	4.25
855.04	3.25
855.779	3.25
856.518	2.25
857.257	1.25
857.995	2.25
858.734	3.25
859.473	3.25
860.211	0.25
860.95	0.25
861.688	1.25
862.426	3.25
863.165	1.25
863.903	0.25
864.641	1.25
865.379	2.25
866.117	3.25
866.855	1.25
867.593	1.25
868.33	2.25
869.068	1.25
869.806	3.25
870.543	2.25
871.28	3.25
872.018	2.25
872.755	3.25
873.492	2.25
874.229	2.25
874.967	2.25
875.703	1.25
876.44	0.25
877.177	1.25
877.914	2.25
878.651	2.25
879.387	2.25
880.124	0.25
880.86	1.25
881.597	3.25
882.333	1.25
883.069	-0.75
883.806	1.25
884.542	2.25
885.278	3.25
886.014	2.25
886.749	2.25
887.485	0.25
888.221	0.25
888.957	1.25
889.692	1.25
890.428	2.25
891.163	0.25
891.899	3.25
892.634	2.25
893.369	1.25
894.104	1.25
894.839	0.25
895.574	0.25
896.309	1.25
897.044	0.25
897.779	3.25
898.514	3.25
899.248	1.25
899.983	-1.75
900.717	2.25
901.452	0.25
902.186	0.25
902.92	-1.75
903.654	-0.75
904.389	2.25
905.123	0.25
905.857	-1.75
906.59	0.25
907.324	-0.75
908.058	2.25
908.792	0.25
909.525	2.25
910.259	-0.75
910.992	0.25
911.726	0.25
912.459	0.25
913.192	0.25
913.925	1.25
914.658	0.25
915.391	-1.75
916.124	1.25
916.857	0.25
917.59	1.25
918.323	-1.75
919.055	1.25
919.788	0.25
920.521	-0.75
921.253	-0.75
921.985	-0.75
922.718	1.25
923.45	0.25
924.182	1.25
924.914	0.25
925.646	-0.75
926.378	2.25
927.11	0.25
927.841	-1.75
928.573	0.25
929.305	0.25
930.036	1.25
930.768	-0.75
931.499	0.25
932.23	-1.75
932.962	2.25
933.693	2.25
934.424	-0.75
935.155	2.25
935.886	-0.75
936.617	2.25
937.348	1.25
938.078	-0.75
938.809	2.25
939.54	1.25
940.27	0.25
941.001	0.25
941.731	0.25
942.461	-1.75
943.191	0.25
943.922	2.25
944.652	-0.75
945.382	0.25
946.112	-1.75
946.841	0.25
947.571	1.25
948.301	-1.75
949.031	0.25
949.76	1.25
950.49	0.25
951.219	0.25
951.948	0.25
952.678	1.25
953.407	-0.75
954.136	1.25
954.865	0.25
955.594	2.25
956.323	1.25
957.052	1.25
957.78	0.25
958.509	1.25
959.238	-0.75
959.966	0.25
960.695	1.25
961.423	-1.75
962.151	-1.75
962.88	2.25
963.608	1.25
964.336	-0.75
965.064	0.25
965.792	0.25
966.52	1.25
967.247	-0.75
967.975	1.25
968.703	1.25
969.43	2.25
970.158	1.25
970.885	0.25
971.613	2.25
972.34	-0.75
973.067	-1.75
973.794	2.25
974.521	2.25
975.248	0.25
975.975	0.25
976.702	1.25
977.429	0.25
978.156	2.25
978.882	0.25
979.609	0.25
980.335	2.25
981.062	0.25
981.788	1.25
982.514	1.25
983.24	1.25
983.967	0.25
984.693	1.25
985.419	0.25
986.144	-0.75
986.87	0.25
987.596	0.25
988.322	1.25
989.047	1.25
989.773	1.25
990.498	2.25
991.224	1.25
991.949	2.25
992.674	-1.75
993.399	2.25
994.124	-0.75
994.849	0.25
995.574	0.25
996.299	-0.75
997.024	-0.75
997.749	2.25
998.473	0.25
999.198	1.25
999.922	0.25
1000.647	1.25
1001.371	2.25
1002.095	-1.75
1002.82	0.25
1003.544	-0.75
1004.268	1.25
1004.992	2.25
1005.716	1.25
1006.439	2.25
1007.163	3.25
1007.887	2.25
1008.611	-0.75
1009.334	1.25
1010.058	1.25
1010.781	0.25
1011.504	1.25
1012.228	1.25
1012.951	0.25
1013.674	1.25
1014.397	0.25
1015.12	-1.75
