节点500_285_QEPB04081__306__15-00-38-757.txt的数据

Date: Wed Nov 12 15:00:38 CST 2025
User: PC
Spectrometer: QEPB0408
触发模式: 0
积分时间 (秒): 1.000000E-2
Scans to average: 1
启用暗噪声校正: true
启用非线性校正: false
滑动平均宽度: 0
X轴模式: Wavelengths
Number of Pixels in Spectrum: 1044
>>>>>Begin Spectral Data<<<<<
220.843	2.38
221.644	4.38
222.444	3.38
223.244	2.38
224.045	2.38
224.845	4.38
225.645	5.38
226.445	3.38
227.245	3.38
228.045	2.38
228.845	4.38
229.645	2.38
230.444	1.38
231.244	4.38
232.043	2.38
232.843	2.38
233.642	5.38
234.442	6.38
235.241	6.38
236.04	5.38
236.839	4.38
237.638	4.38
238.437	3.38
239.236	4.38
240.035	4.38
240.833	5.38
241.632	3.38
242.43	4.38
243.229	5.38
244.027	6.38
244.826	5.38
245.624	6.38
246.422	5.38
247.22	5.38
248.018	8.38
248.816	5.38
249.614	8.38
250.412	5.38
251.21	9.38
252.007	6.38
252.805	6.38
253.602	6.38
254.4	9.38
255.197	9.38
255.994	9.38
256.791	8.38
257.589	9.38
258.386	10.38
259.183	10.38
259.979	9.38
260.776	12.38
261.573	11.38
262.37	10.38
263.166	10.38
263.963	10.38
264.759	11.38
265.556	14.38
266.352	11.38
267.148	14.38
267.944	13.38
268.74	16.38
269.536	13.38
270.332	16.38
271.128	16.38
271.924	15.38
272.719	16.38
273.515	17.38
274.311	14.38
275.106	18.38
275.901	18.38
276.697	18.38
277.492	19.38
278.287	19.38
279.082	18.38
279.877	20.38
280.672	21.38
281.467	22.38
282.262	18.38
283.056	19.38
283.851	20.38
284.646	21.38
285.44	21.38
286.234	20.38
287.029	18.38
287.823	21.38
288.617	21.38
289.411	18.38
290.205	17.38
290.999	20.38
291.793	16.38
292.587	17.38
293.381	20.38
294.174	17.38
294.968	18.38
295.761	17.38
296.555	16.38
297.348	13.38
298.141	16.38
298.935	20.38
299.728	16.38
300.521	15.38
301.314	13.38
302.107	12.38
302.899	15.38
303.692	11.38
304.485	15.38
305.277	14.38
306.07	13.38
306.862	14.38
307.655	10.38
308.447	12.38
309.239	12.38
310.031	12.38
310.823	11.38
311.615	11.38
312.407	9.38
313.199	10.38
313.991	12.38
314.783	10.38
315.574	10.38
316.366	11.38
317.157	8.38
317.949	10.38
318.74	8.38
319.531	8.38
320.322	6.38
321.113	6.38
321.904	8.38
322.695	8.38
323.486	7.38
324.277	8.38
325.068	7.38
325.858	9.38
326.649	10.38
327.439	8.38
328.23	7.38
329.02	6.38
329.81	6.38
330.6	8.38
331.391	6.38
332.181	6.38
332.971	8.38
333.76	8.38
334.55	6.38
335.34	9.38
336.13	5.38
336.919	8.38
337.709	4.38
338.498	8.38
339.287	6.38
340.077	6.38
340.866	8.38
341.655	5.38
342.444	7.38
343.233	6.38
344.022	6.38
344.811	8.38
345.6	5.38
346.388	6.38
347.177	7.38
347.965	9.38
348.754	7.38
349.542	5.38
350.33	6.38
351.119	9.38
351.907	9.38
352.695	8.38
353.483	7.38
354.271	7.38
355.059	5.38
355.846	8.38
356.634	6.38
357.422	8.38
358.209	4.38
358.997	7.38
359.784	7.38
360.571	6.38
361.359	6.38
362.146	4.38
362.933	7.38
363.72	6.38
364.507	7.38
365.294	6.38
366.081	6.38
366.867	8.38
367.654	4.38
368.44	6.38
369.227	5.38
370.013	7.38
370.8	7.38
371.586	6.38
372.372	7.38
373.158	6.38
373.944	4.38
374.73	6.38
375.516	7.38
376.302	6.38
377.088	6.38
377.873	9.38
378.659	5.38
379.445	7.38
380.23	7.38
381.015	4.38
381.801	6.38
382.586	5.38
383.371	7.38
384.156	7.38
384.941	5.38
385.726	7.38
386.511	5.38
387.296	7.38
388.08	8.38
388.865	6.38
389.649	7.38
390.434	2.38
391.218	6.38
392.003	7.38
392.787	7.38
393.571	8.38
394.355	6.38
395.139	7.38
395.923	5.38
396.707	8.38
397.491	7.38
398.274	10.38
399.058	6.38
399.842	5.38
400.625	5.38
401.408	7.38
402.192	6.38
402.975	7.38
403.758	3.38
404.541	8.38
405.324	7.38
406.107	8.38
406.89	6.38
407.673	7.38
408.456	8.38
409.238	7.38
410.021	7.38
410.803	7.38
411.586	8.38
412.368	6.38
413.151	8.38
413.933	10.38
414.715	7.38
415.497	12.38
416.279	9.38
417.061	9.38
417.843	11.38
418.624	10.38
419.406	10.38
420.188	9.38
420.969	13.38
421.751	13.38
422.532	12.38
423.313	10.38
424.095	14.38
424.876	13.38
425.657	14.38
426.438	13.38
427.219	15.38
428	12.38
428.78	14.38
429.561	15.38
430.342	14.38
431.122	14.38
431.903	15.38
432.683	16.38
433.464	17.38
434.244	15.38
435.024	18.38
435.804	19.38
436.584	16.38
437.364	21.38
438.144	19.38
438.924	22.38
439.704	20.38
440.483	22.38
441.263	24.38
442.042	26.38
442.822	27.38
443.601	29.38
444.38	29.38
445.16	33.38
445.939	31.38
446.718	40.38
447.497	39.38
448.276	42.38
449.054	46.38
449.833	45.38
450.612	53.38
451.391	56.38
452.169	62.38
452.948	67.38
453.726	72.38
454.504	85.38
455.282	88.38
456.061	102.38
456.839	110.38
457.617	124.38
458.395	132.38
459.172	150.38
459.95	165.38
460.728	182.38
461.506	204.38
462.283	225.38
463.061	252.38
463.838	284.38
464.615	317.38
465.393	362.38
466.17	398.38
466.947	445.38
467.724	485.38
468.501	549.38
469.278	611.38
470.055	686.38
470.831	763.38
471.608	847.38
472.385	939.38
473.161	1050.38
473.938	1163.38
474.714	1286.38
475.49	1422.38
476.266	1572.38
477.043	1757.38
477.819	1921.38
478.595	2133.38
479.371	2359.38
480.146	2588.38
480.922	2881.38
481.698	3183.38
482.473	3473.38
483.249	3854.38
484.024	4229.38
484.8	4617.38
485.575	5122.38
486.35	5631.38
487.126	6155.38
487.901	6746.38
488.676	7423.38
489.451	8113.38
490.225	8883.38
491	9729.38
491.775	10631.38
492.55	11584.38
493.324	12587.38
494.099	13574.38
494.873	14571.38
495.647	15755.38
496.422	16868.38
497.196	18087.38
497.97	19271.38
498.744	20555.38
499.518	21676.38
500.292	22894.38
501.066	24032.38
501.839	24896.38
502.613	25773.38
503.387	26534.38
504.16	27220.38
504.934	27549.38
505.707	27637.38
506.48	27687.38
507.253	27543.38
508.027	27306.38
508.8	26990.38
509.573	26536.38
510.346	25855.38
511.118	25086.38
511.891	24218.38
512.664	23319.38
513.437	22459.38
514.209	21490.38
514.982	20594.38
515.754	19746.38
516.526	18873.38
517.298	18019.38
518.071	17211.38
518.843	16536.38
519.615	15886.38
520.387	15280.38
521.159	14741.38
521.93	14120.38
522.702	13525.38
523.474	13005.38
524.245	12463.38
525.017	11919.38
525.788	11396.38
526.56	10907.38
527.331	10420.38
528.102	9898.38
528.873	9495.38
529.644	8989.38
530.415	8549.38
531.186	8104.38
531.957	7677.38
532.728	7306.38
533.498	6921.38
534.269	6517.38
535.039	6181.38
535.81	5841.38
536.58	5502.38
537.351	5181.38
538.121	4928.38
538.891	4621.38
539.661	4391.38
540.431	4150.38
541.201	3920.38
541.971	3691.38
542.741	3510.38
543.51	3323.38
544.28	3177.38
545.05	3033.38
545.819	2866.38
546.588	2745.38
547.358	2592.38
548.127	2471.38
548.896	2329.38
549.665	2231.38
550.434	2109.38
551.203	1973.38
551.972	1885.38
552.741	1774.38
553.51	1687.38
554.278	1590.38
555.047	1493.38
555.815	1424.38
556.584	1330.38
557.352	1267.38
558.121	1195.38
558.889	1123.38
559.657	1055.38
560.425	1006.38
561.193	937.38
561.961	888.38
562.729	843.38
563.496	808.38
564.264	757.38
565.032	714.38
565.799	677.38
566.567	642.38
567.334	595.38
568.101	560.38
568.869	539.38
569.636	502.38
570.403	480.38
571.17	446.38
571.937	413.38
572.704	407.38
573.471	377.38
574.237	354.38
575.004	332.38
575.771	311.38
576.537	297.38
577.303	280.38
578.07	254.38
578.836	246.38
579.602	235.38
580.368	227.38
581.134	207.38
581.9	201.38
582.666	189.38
583.432	181.38
584.198	170.38
584.964	164.38
585.729	151.38
586.495	146.38
587.26	139.38
588.025	130.38
588.791	127.38
589.556	119.38
590.321	110.38
591.086	108.38
591.851	104.38
592.616	96.38
593.381	89.38
594.146	85.38
594.911	79.38
595.675	77.38
596.44	77.38
597.204	71.38
597.969	64.38
598.733	67.38
599.497	60.38
600.261	62.38
601.025	56.38
601.79	53.38
602.553	55.38
603.317	47.38
604.081	46.38
604.845	45.38
605.609	46.38
606.372	42.38
607.136	39.38
607.899	39.38
608.662	36.38
609.426	31.38
610.189	38.38
610.952	35.38
611.715	32.38
612.478	30.38
613.241	31.38
614.004	26.38
614.767	29.38
615.529	27.38
616.292	28.38
617.055	22.38
617.817	23.38
618.579	21.38
619.342	22.38
620.104	21.38
620.866	22.38
621.628	21.38
622.39	19.38
623.152	20.38
623.914	18.38
624.676	16.38
625.438	18.38
626.199	18.38
626.961	15.38
627.722	17.38
628.484	14.38
629.245	16.38
630.006	13.38
630.768	14.38
631.529	13.38
632.29	12.38
633.051	11.38
633.812	11.38
634.573	15.38
635.333	11.38
636.094	13.38
636.855	8.38
637.615	12.38
638.376	10.38
639.136	9.38
639.896	7.38
640.657	12.38
641.417	9.38
642.177	7.38
642.937	10.38
643.697	9.38
644.457	9.38
645.216	9.38
645.976	8.38
646.736	9.38
647.495	9.38
648.255	9.38
649.014	8.38
649.774	9.38
650.533	7.38
651.292	9.38
652.051	6.38
652.81	6.38
653.569	6.38
654.328	6.38
655.087	5.38
655.846	7.38
656.604	9.38
657.363	8.38
658.121	5.38
658.88	7.38
659.638	7.38
660.397	6.38
661.155	5.38
661.913	7.38
662.671	7.38
663.429	6.38
664.187	5.38
664.945	7.38
665.703	7.38
666.46	4.38
667.218	7.38
667.976	5.38
668.733	4.38
669.49	6.38
670.248	5.38
671.005	5.38
671.762	4.38
672.519	4.38
673.276	3.38
674.033	5.38
674.79	7.38
675.547	3.38
676.304	5.38
677.06	2.38
677.817	7.38
678.574	6.38
679.33	4.38
680.086	2.38
680.843	2.38
681.599	3.38
682.355	4.38
683.111	4.38
683.867	7.38
684.623	3.38
685.379	7.38
686.135	2.38
686.89	4.38
687.646	6.38
688.402	3.38
689.157	5.38
689.912	5.38
690.668	3.38
691.423	3.38
692.178	4.38
692.933	5.38
693.688	6.38
694.443	4.38
695.198	4.38
695.953	6.38
696.708	4.38
697.462	4.38
698.217	4.38
698.972	4.38
699.726	4.38
700.48	2.38
701.235	2.38
701.989	2.38
702.743	3.38
703.497	4.38
704.251	6.38
705.005	4.38
705.759	4.38
706.513	4.38
707.266	4.38
708.02	6.38
708.774	7.38
709.527	4.38
710.28	4.38
711.034	3.38
711.787	6.38
712.54	4.38
713.293	5.38
714.046	4.38
714.799	4.38
715.552	5.38
716.305	5.38
717.058	4.38
717.81	5.38
718.563	3.38
719.315	4.38
720.068	4.38
720.82	5.38
721.573	4.38
722.325	4.38
723.077	5.38
723.829	3.38
724.581	8.38
725.333	4.38
726.085	3.38
726.836	6.38
727.588	4.38
728.34	4.38
729.091	5.38
729.843	8.38
730.594	4.38
731.346	7.38
732.097	4.38
732.848	3.38
733.599	5.38
734.35	1.38
735.101	5.38
735.852	4.38
736.603	4.38
737.354	7.38
738.104	8.38
738.855	6.38
739.605	7.38
740.356	8.38
741.106	3.38
741.856	3.38
742.607	8.38
743.357	5.38
744.107	6.38
744.857	6.38
745.607	5.38
746.357	6.38
747.106	5.38
747.856	4.38
748.606	7.38
749.355	6.38
750.105	4.38
750.854	5.38
751.603	5.38
752.353	5.38
753.102	7.38
753.851	7.38
754.6	5.38
755.349	6.38
756.098	7.38
756.847	6.38
757.595	6.38
758.344	5.38
759.093	4.38
759.841	7.38
760.589	4.38
761.338	5.38
762.086	7.38
762.834	6.38
763.582	9.38
764.331	7.38
765.079	9.38
765.826	8.38
766.574	7.38
767.322	9.38
768.07	7.38
768.817	9.38
769.565	8.38
770.312	7.38
771.06	9.38
771.807	9.38
772.554	6.38
773.302	8.38
774.049	9.38
774.796	7.38
775.543	8.38
776.29	10.38
777.036	11.38
777.783	9.38
778.53	8.38
779.276	8.38
780.023	12.38
780.769	8.38
781.516	10.38
782.262	7.38
783.008	10.38
783.754	10.38
784.5	9.38
785.246	8.38
785.992	8.38
786.738	10.38
787.484	7.38
788.23	10.38
788.975	7.38
789.721	7.38
790.466	10.38
791.212	6.38
791.957	10.38
792.702	10.38
793.447	9.38
794.193	9.38
794.938	10.38
795.683	9.38
796.427	9.38
797.172	6.38
797.917	9.38
798.662	9.38
799.406	9.38
800.151	6.38
800.895	7.38
801.64	6.38
802.384	4.38
803.128	6.38
803.872	8.38
804.616	8.38
805.36	7.38
806.104	8.38
806.848	7.38
807.592	9.38
808.336	5.38
809.079	5.38
809.823	4.38
810.566	3.38
811.31	9.38
812.053	6.38
812.796	6.38
813.539	6.38
814.283	6.38
815.026	6.38
815.769	6.38
816.511	4.38
817.254	6.38
817.997	5.38
818.74	8.38
819.482	6.38
820.225	3.38
820.967	6.38
821.71	5.38
822.452	6.38
823.194	2.38
823.936	5.38
824.678	4.38
825.42	5.38
826.162	4.38
826.904	4.38
827.646	3.38
828.388	3.38
829.129	4.38
829.871	6.38
830.612	4.38
831.354	6.38
832.095	7.38
832.836	4.38
833.577	4.38
834.319	5.38
835.06	5.38
835.801	5.38
836.542	2.38
837.282	5.38
838.023	3.38
838.764	4.38
839.504	3.38
840.245	5.38
840.985	2.38
841.726	4.38
842.466	4.38
843.206	5.38
843.946	3.38
844.687	2.38
845.427	4.38
846.166	5.38
846.906	2.38
847.646	3.38
848.386	2.38
849.125	2.38
849.865	3.38
850.605	4.38
851.344	3.38
852.083	4.38
852.823	4.38
853.562	3.38
854.301	4.38
855.04	2.38
855.779	2.38
856.518	2.38
857.257	3.38
857.995	2.38
858.734	4.38
859.473	2.38
860.211	2.38
860.95	2.38
861.688	1.38
862.426	3.38
863.165	4.38
863.903	1.38
864.641	0.38
865.379	1.38
866.117	3.38
866.855	2.38
867.593	3.38
868.33	4.38
869.068	1.38
869.806	2.38
870.543	1.38
871.28	2.38
872.018	1.38
872.755	2.38
873.492	1.38
874.229	4.38
874.967	3.38
875.703	3.38
876.44	0.38
877.177	2.38
877.914	0.38
878.651	2.38
879.387	2.38
880.124	3.38
880.86	2.38
881.597	1.38
882.333	2.38
883.069	1.38
883.806	2.38
884.542	1.38
885.278	1.38
886.014	2.38
886.749	2.38
887.485	2.38
888.221	4.38
888.957	1.38
889.692	-0.62
890.428	1.38
891.163	1.38
891.899	1.38
892.634	2.38
893.369	2.38
894.104	1.38
894.839	-1.62
895.574	2.38
896.309	1.38
897.044	1.38
897.779	2.38
898.514	0.38
899.248	0.38
899.983	1.38
900.717	2.38
901.452	2.38
902.186	0.38
902.92	0.38
903.654	1.38
904.389	1.38
905.123	2.38
905.857	0.38
906.59	1.38
907.324	1.38
908.058	-1.62
908.792	1.38
909.525	1.38
910.259	0.38
910.992	0.38
911.726	3.38
912.459	1.38
913.192	0.38
913.925	3.38
914.658	-1.62
915.391	1.38
916.124	2.38
916.857	3.38
917.59	2.38
918.323	-1.62
919.055	3.38
919.788	0.38
920.521	0.38
921.253	2.38
921.985	-0.62
922.718	0.38
923.45	-1.62
924.182	0.38
924.914	1.38
925.646	0.38
926.378	1.38
927.11	-0.62
927.841	1.38
928.573	-0.62
929.305	0.38
930.036	1.38
930.768	0.38
931.499	1.38
932.23	0.38
932.962	2.38
933.693	2.38
934.424	0.38
935.155	-0.62
935.886	1.38
936.617	4.38
937.348	0.38
938.078	2.38
938.809	1.38
939.54	-0.62
940.27	1.38
941.001	0.38
941.731	2.38
942.461	-0.62
943.191	1.38
943.922	0.38
944.652	1.38
945.382	3.38
946.112	0.38
946.841	2.38
947.571	-1.62
948.301	1.38
949.031	0.38
949.76	1.38
950.49	2.38
951.219	-0.62
951.948	1.38
952.678	-1.62
953.407	1.38
954.136	1.38
954.865	-0.62
955.594	1.38
956.323	0.38
957.052	1.38
957.78	2.38
958.509	1.38
959.238	1.38
959.966	1.38
960.695	3.38
961.423	0.38
962.151	1.38
962.88	2.38
963.608	0.38
964.336	0.38
965.064	1.38
965.792	0.38
966.52	-0.62
967.247	2.38
967.975	2.38
968.703	0.38
969.43	-0.62
970.158	1.38
970.885	1.38
971.613	0.38
972.34	1.38
973.067	0.38
973.794	1.38
974.521	1.38
975.248	1.38
975.975	0.38
976.702	0.38
977.429	0.38
978.156	2.38
978.882	-1.62
979.609	1.38
980.335	2.38
981.062	0.38
981.788	1.38
982.514	2.38
983.24	2.38
983.967	0.38
984.693	-1.62
985.419	0.38
986.144	0.38
986.87	2.38
987.596	1.38
988.322	2.38
989.047	0.38
989.773	1.38
990.498	-1.62
991.224	-0.62
991.949	0.38
992.674	1.38
993.399	2.38
994.124	0.38
994.849	3.38
995.574	1.38
996.299	0.38
997.024	1.38
997.749	0.38
998.473	2.38
999.198	0.38
999.922	1.38
1000.647	1.38
1001.371	2.38
1002.095	-1.62
1002.82	-1.62
1003.544	0.38
1004.268	3.38
1004.992	1.38
1005.716	0.38
1006.439	1.38
1007.163	1.38
1007.887	1.38
1008.611	0.38
1009.334	1.38
1010.058	0.38
1010.781	1.38
1011.504	1.38
1012.228	2.38
1012.951	2.38
1013.674	-1.62
1014.397	-0.62
1015.12	0.38
