节点500_285_QEPB04081__707__15-07-18-809.txt的数据

Date: Wed Nov 12 15:07:18 CST 2025
User: PC
Spectrometer: QEPB0408
触发模式: 0
积分时间 (秒): 1.000000E-2
Scans to average: 1
启用暗噪声校正: true
启用非线性校正: false
滑动平均宽度: 0
X轴模式: Wavelengths
Number of Pixels in Spectrum: 1044
>>>>>Begin Spectral Data<<<<<
220.843	4.62
221.644	0.62
222.444	1.62
223.244	1.62
224.045	4.62
224.845	4.62
225.645	4.62
226.445	3.62
227.245	1.62
228.045	3.62
228.845	1.62
229.645	0.62
230.444	3.62
231.244	3.62
232.043	4.62
232.843	4.62
233.642	1.62
234.442	2.62
235.241	5.62
236.04	3.62
236.839	5.62
237.638	2.62
238.437	1.62
239.236	6.62
240.035	2.62
240.833	4.62
241.632	5.62
242.43	4.62
243.229	7.62
244.027	5.62
244.826	4.62
245.624	4.62
246.422	4.62
247.22	6.62
248.018	5.62
248.816	6.62
249.614	4.62
250.412	6.62
251.21	7.62
252.007	7.62
252.805	6.62
253.602	6.62
254.4	7.62
255.197	7.62
255.994	9.62
256.791	8.62
257.589	11.62
258.386	9.62
259.183	7.62
259.979	10.62
260.776	10.62
261.573	9.62
262.37	8.62
263.166	9.62
263.963	9.62
264.759	10.62
265.556	9.62
266.352	13.62
267.148	10.62
267.944	13.62
268.74	13.62
269.536	13.62
270.332	14.62
271.128	14.62
271.924	13.62
272.719	15.62
273.515	16.62
274.311	13.62
275.106	14.62
275.901	16.62
276.697	15.62
277.492	14.62
278.287	17.62
279.082	15.62
279.877	17.62
280.672	17.62
281.467	16.62
282.262	17.62
283.056	17.62
283.851	16.62
284.646	17.62
285.44	18.62
286.234	19.62
287.029	13.62
287.823	21.62
288.617	18.62
289.411	19.62
290.205	16.62
290.999	17.62
291.793	16.62
292.587	19.62
293.381	18.62
294.174	18.62
294.968	17.62
295.761	14.62
296.555	12.62
297.348	13.62
298.141	14.62
298.935	18.62
299.728	15.62
300.521	13.62
301.314	14.62
302.107	12.62
302.899	13.62
303.692	14.62
304.485	12.62
305.277	12.62
306.07	12.62
306.862	14.62
307.655	13.62
308.447	13.62
309.239	12.62
310.031	10.62
310.823	10.62
311.615	10.62
312.407	11.62
313.199	11.62
313.991	10.62
314.783	9.62
315.574	9.62
316.366	11.62
317.157	9.62
317.949	8.62
318.74	8.62
319.531	8.62
320.322	8.62
321.113	8.62
321.904	7.62
322.695	7.62
323.486	7.62
324.277	7.62
325.068	10.62
325.858	6.62
326.649	7.62
327.439	10.62
328.23	7.62
329.02	9.62
329.81	7.62
330.6	6.62
331.391	7.62
332.181	4.62
332.971	6.62
333.76	6.62
334.55	7.62
335.34	5.62
336.13	5.62
336.919	5.62
337.709	6.62
338.498	7.62
339.287	6.62
340.077	6.62
340.866	6.62
341.655	7.62
342.444	9.62
343.233	6.62
344.022	5.62
344.811	6.62
345.6	8.62
346.388	5.62
347.177	8.62
347.965	6.62
348.754	4.62
349.542	8.62
350.33	4.62
351.119	8.62
351.907	5.62
352.695	4.62
353.483	3.62
354.271	5.62
355.059	6.62
355.846	6.62
356.634	6.62
357.422	6.62
358.209	5.62
358.997	7.62
359.784	5.62
360.571	6.62
361.359	8.62
362.146	6.62
362.933	4.62
363.72	4.62
364.507	7.62
365.294	5.62
366.081	4.62
366.867	7.62
367.654	5.62
368.44	3.62
369.227	5.62
370.013	7.62
370.8	5.62
371.586	6.62
372.372	6.62
373.158	4.62
373.944	5.62
374.73	3.62
375.516	8.62
376.302	6.62
377.088	3.62
377.873	5.62
378.659	4.62
379.445	7.62
380.23	6.62
381.015	4.62
381.801	4.62
382.586	3.62
383.371	6.62
384.156	5.62
384.941	4.62
385.726	3.62
386.511	7.62
387.296	7.62
388.08	5.62
388.865	5.62
389.649	5.62
390.434	10.62
391.218	5.62
392.003	6.62
392.787	6.62
393.571	5.62
394.355	8.62
395.139	5.62
395.923	5.62
396.707	6.62
397.491	4.62
398.274	5.62
399.058	6.62
399.842	8.62
400.625	8.62
401.408	8.62
402.192	4.62
402.975	6.62
403.758	8.62
404.541	5.62
405.324	7.62
406.107	7.62
406.89	7.62
407.673	7.62
408.456	6.62
409.238	7.62
410.021	7.62
410.803	8.62
411.586	7.62
412.368	9.62
413.151	7.62
413.933	10.62
414.715	6.62
415.497	10.62
416.279	6.62
417.061	12.62
417.843	9.62
418.624	9.62
419.406	10.62
420.188	11.62
420.969	10.62
421.751	12.62
422.532	9.62
423.313	10.62
424.095	12.62
424.876	11.62
425.657	12.62
426.438	11.62
427.219	11.62
428	12.62
428.78	9.62
429.561	16.62
430.342	14.62
431.122	12.62
431.903	13.62
432.683	13.62
433.464	15.62
434.244	17.62
435.024	17.62
435.804	19.62
436.584	18.62
437.364	19.62
438.144	20.62
438.924	21.62
439.704	24.62
440.483	24.62
441.263	22.62
442.042	27.62
442.822	29.62
443.601	28.62
444.38	34.62
445.16	32.62
445.939	34.62
446.718	39.62
447.497	38.62
448.276	45.62
449.054	48.62
449.833	50.62
450.612	53.62
451.391	61.62
452.169	62.62
452.948	72.62
453.726	78.62
454.504	90.62
455.282	99.62
456.061	111.62
456.839	119.62
457.617	136.62
458.395	145.62
459.172	166.62
459.95	185.62
460.728	205.62
461.506	233.62
462.283	256.62
463.061	275.62
463.838	316.62
464.615	350.62
465.393	387.62
466.17	443.62
466.947	487.62
467.724	546.62
468.501	594.62
469.278	663.62
470.055	735.62
470.831	805.62
471.608	906.62
472.385	1002.62
473.161	1095.62
473.938	1206.62
474.714	1326.62
475.49	1454.62
476.266	1591.62
477.043	1749.62
477.819	1938.62
478.595	2135.62
479.371	2344.62
480.146	2539.62
480.922	2807.62
481.698	3054.62
482.473	3368.62
483.249	3669.62
484.024	4020.62
484.8	4384.62
485.575	4762.62
486.35	5207.62
487.126	5677.62
487.901	6181.62
488.676	6735.62
489.451	7334.62
490.225	8011.62
491	8685.62
491.775	9457.62
492.55	10213.62
493.324	11054.62
494.099	11827.62
494.873	12734.62
495.647	13689.62
496.422	14692.62
497.196	15684.62
497.97	16751.62
498.744	17839.62
499.518	18884.62
500.292	19896.62
501.066	20916.62
501.839	21824.62
502.613	22744.62
503.387	23591.62
504.16	24287.62
504.934	24741.62
505.707	25111.62
506.48	25285.62
507.253	25432.62
508.027	25459.62
508.8	25335.62
509.573	25162.62
510.346	24786.62
511.118	24227.62
511.891	23681.62
512.664	22989.62
513.437	22300.62
514.209	21451.62
514.982	20736.62
515.754	19914.62
516.526	19049.62
517.298	18301.62
518.071	17562.62
518.843	16868.62
519.615	16246.62
520.387	15597.62
521.159	14981.62
521.93	14377.62
522.702	13821.62
523.474	13222.62
524.245	12671.62
525.017	12161.62
525.788	11712.62
526.56	11177.62
527.331	10706.62
528.102	10262.62
528.873	9801.62
529.644	9309.62
530.415	8883.62
531.186	8476.62
531.957	8061.62
532.728	7673.62
533.498	7317.62
534.269	6926.62
535.039	6534.62
535.81	6185.62
536.58	5833.62
537.351	5509.62
538.121	5224.62
538.891	4953.62
539.661	4707.62
540.431	4422.62
541.201	4169.62
541.971	3931.62
542.741	3743.62
543.51	3562.62
544.28	3392.62
545.05	3210.62
545.819	3058.62
546.588	2928.62
547.358	2761.62
548.127	2619.62
548.896	2502.62
549.665	2394.62
550.434	2239.62
551.203	2142.62
551.972	2020.62
552.741	1931.62
553.51	1817.62
554.278	1703.62
555.047	1617.62
555.815	1528.62
556.584	1445.62
557.352	1369.62
558.121	1290.62
558.889	1232.62
559.657	1148.62
560.425	1090.62
561.193	1027.62
561.961	970.62
562.729	929.62
563.496	874.62
564.264	814.62
565.032	769.62
565.799	733.62
566.567	689.62
567.334	662.62
568.101	619.62
568.869	581.62
569.636	545.62
570.403	516.62
571.17	494.62
571.937	466.62
572.704	434.62
573.471	408.62
574.237	389.62
575.004	368.62
575.771	341.62
576.537	325.62
577.303	306.62
578.07	290.62
578.836	275.62
579.602	263.62
580.368	246.62
581.134	228.62
581.9	225.62
582.666	209.62
583.432	193.62
584.198	188.62
584.964	173.62
585.729	164.62
586.495	152.62
587.26	147.62
588.025	141.62
588.791	137.62
589.556	125.62
590.321	118.62
591.086	112.62
591.851	109.62
592.616	101.62
593.381	94.62
594.146	92.62
594.911	90.62
595.675	81.62
596.44	81.62
597.204	76.62
597.969	73.62
598.733	68.62
599.497	72.62
600.261	63.62
601.025	62.62
601.79	57.62
602.553	55.62
603.317	55.62
604.081	52.62
604.845	49.62
605.609	44.62
606.372	44.62
607.136	44.62
607.899	40.62
608.662	43.62
609.426	37.62
610.189	39.62
610.952	34.62
611.715	33.62
612.478	34.62
613.241	30.62
614.004	31.62
614.767	33.62
615.529	26.62
616.292	27.62
617.055	23.62
617.817	25.62
618.579	24.62
619.342	26.62
620.104	23.62
620.866	22.62
621.628	21.62
622.39	22.62
623.152	21.62
623.914	20.62
624.676	20.62
625.438	18.62
626.199	16.62
626.961	17.62
627.722	17.62
628.484	18.62
629.245	16.62
630.006	15.62
630.768	15.62
631.529	11.62
632.29	13.62
633.051	16.62
633.812	14.62
634.573	14.62
635.333	10.62
636.094	10.62
636.855	11.62
637.615	11.62
638.376	9.62
639.136	10.62
639.896	10.62
640.657	9.62
641.417	11.62
642.177	10.62
642.937	9.62
643.697	7.62
644.457	9.62
645.216	12.62
645.976	6.62
646.736	8.62
647.495	8.62
648.255	8.62
649.014	10.62
649.774	7.62
650.533	7.62
651.292	8.62
652.051	9.62
652.81	8.62
653.569	7.62
654.328	6.62
655.087	7.62
655.846	6.62
656.604	6.62
657.363	7.62
658.121	7.62
658.88	6.62
659.638	5.62
660.397	4.62
661.155	6.62
661.913	5.62
662.671	5.62
663.429	5.62
664.187	6.62
664.945	5.62
665.703	5.62
666.46	7.62
667.218	2.62
667.976	7.62
668.733	5.62
669.49	7.62
670.248	4.62
671.005	6.62
671.762	5.62
672.519	4.62
673.276	4.62
674.033	3.62
674.79	5.62
675.547	3.62
676.304	2.62
677.06	5.62
677.817	4.62
678.574	5.62
679.33	4.62
680.086	8.62
680.843	5.62
681.599	4.62
682.355	5.62
683.111	3.62
683.867	5.62
684.623	3.62
685.379	4.62
686.135	5.62
686.89	5.62
687.646	6.62
688.402	2.62
689.157	3.62
689.912	3.62
690.668	4.62
691.423	2.62
692.178	2.62
692.933	2.62
693.688	4.62
694.443	3.62
695.198	4.62
695.953	3.62
696.708	2.62
697.462	1.62
698.217	5.62
698.972	2.62
699.726	4.62
700.48	3.62
701.235	2.62
701.989	3.62
702.743	5.62
703.497	2.62
704.251	2.62
705.005	2.62
705.759	3.62
706.513	2.62
707.266	4.62
708.02	4.62
708.774	3.62
709.527	3.62
710.28	3.62
711.034	3.62
711.787	4.62
712.54	3.62
713.293	4.62
714.046	1.62
714.799	3.62
715.552	1.62
716.305	3.62
717.058	6.62
717.81	5.62
718.563	5.62
719.315	4.62
720.068	5.62
720.82	2.62
721.573	5.62
722.325	6.62
723.077	4.62
723.829	3.62
724.581	3.62
725.333	5.62
726.085	4.62
726.836	4.62
727.588	4.62
728.34	1.62
729.091	1.62
729.843	3.62
730.594	4.62
731.346	2.62
732.097	4.62
732.848	5.62
733.599	5.62
734.35	6.62
735.101	3.62
735.852	3.62
736.603	3.62
737.354	3.62
738.104	5.62
738.855	5.62
739.605	5.62
740.356	4.62
741.106	7.62
741.856	5.62
742.607	6.62
743.357	3.62
744.107	4.62
744.857	5.62
745.607	4.62
746.357	5.62
747.106	6.62
747.856	2.62
748.606	5.62
749.355	4.62
750.105	6.62
750.854	5.62
751.603	5.62
752.353	5.62
753.102	4.62
753.851	7.62
754.6	3.62
755.349	6.62
756.098	7.62
756.847	5.62
757.595	5.62
758.344	5.62
759.093	3.62
759.841	3.62
760.589	5.62
761.338	7.62
762.086	3.62
762.834	5.62
763.582	4.62
764.331	8.62
765.079	7.62
765.826	7.62
766.574	5.62
767.322	5.62
768.07	6.62
768.817	8.62
769.565	5.62
770.312	8.62
771.06	8.62
771.807	8.62
772.554	6.62
773.302	9.62
774.049	7.62
774.796	10.62
775.543	5.62
776.29	7.62
777.036	8.62
777.783	6.62
778.53	10.62
779.276	7.62
780.023	7.62
780.769	8.62
781.516	6.62
782.262	6.62
783.008	6.62
783.754	8.62
784.5	7.62
785.246	6.62
785.992	9.62
786.738	10.62
787.484	9.62
788.23	9.62
788.975	10.62
789.721	9.62
790.466	8.62
791.212	8.62
791.957	9.62
792.702	8.62
793.447	8.62
794.193	7.62
794.938	7.62
795.683	9.62
796.427	8.62
797.172	6.62
797.917	7.62
798.662	7.62
799.406	7.62
800.151	5.62
800.895	7.62
801.64	8.62
802.384	4.62
803.128	7.62
803.872	6.62
804.616	8.62
805.36	6.62
806.104	6.62
806.848	6.62
807.592	5.62
808.336	5.62
809.079	4.62
809.823	6.62
810.566	8.62
811.31	3.62
812.053	9.62
812.796	6.62
813.539	7.62
814.283	5.62
815.026	6.62
815.769	5.62
816.511	4.62
817.254	6.62
817.997	8.62
818.74	4.62
819.482	7.62
820.225	4.62
820.967	6.62
821.71	4.62
822.452	6.62
823.194	5.62
823.936	5.62
824.678	6.62
825.42	3.62
826.162	6.62
826.904	3.62
827.646	5.62
828.388	4.62
829.129	4.62
829.871	5.62
830.612	3.62
831.354	3.62
832.095	4.62
832.836	6.62
833.577	2.62
834.319	3.62
835.06	7.62
835.801	3.62
836.542	4.62
837.282	3.62
838.023	4.62
838.764	4.62
839.504	4.62
840.245	4.62
840.985	4.62
841.726	3.62
842.466	2.62
843.206	2.62
843.946	3.62
844.687	0.62
845.427	2.62
846.166	2.62
846.906	2.62
847.646	4.62
848.386	0.62
849.125	3.62
849.865	4.62
850.605	4.62
851.344	2.62
852.083	4.62
852.823	3.62
853.562	1.62
854.301	2.62
855.04	2.62
855.779	2.62
856.518	3.62
857.257	0.62
857.995	2.62
858.734	2.62
859.473	3.62
860.211	2.62
860.95	2.62
861.688	3.62
862.426	1.62
863.165	0.62
863.903	1.62
864.641	4.62
865.379	0.62
866.117	0.62
866.855	3.62
867.593	3.62
868.33	2.62
869.068	0.62
869.806	2.62
870.543	-0.38
871.28	3.62
872.018	2.62
872.755	0.62
873.492	2.62
874.229	1.62
874.967	3.62
875.703	1.62
876.44	0.62
877.177	0.62
877.914	2.62
878.651	2.62
879.387	1.62
880.124	3.62
880.86	0.62
881.597	2.62
882.333	1.62
883.069	0.62
883.806	0.62
884.542	2.62
885.278	3.62
886.014	2.62
886.749	1.62
887.485	2.62
888.221	3.62
888.957	-0.38
889.692	-1.38
890.428	1.62
891.163	0.62
891.899	1.62
892.634	1.62
893.369	0.62
894.104	3.62
894.839	4.62
895.574	2.62
896.309	0.62
897.044	0.62
897.779	1.62
898.514	2.62
899.248	1.62
899.983	1.62
900.717	0.62
901.452	0.62
902.186	1.62
902.92	2.62
903.654	2.62
904.389	1.62
905.123	1.62
905.857	0.62
906.59	1.62
907.324	2.62
908.058	2.62
908.792	1.62
909.525	1.62
910.259	0.62
910.992	1.62
911.726	-1.38
912.459	-0.38
913.192	1.62
913.925	1.62
914.658	1.62
915.391	0.62
916.124	1.62
916.857	1.62
917.59	-0.38
918.323	2.62
919.055	2.62
919.788	0.62
920.521	1.62
921.253	0.62
921.985	1.62
922.718	-1.38
923.45	1.62
924.182	-0.38
924.914	0.62
925.646	2.62
926.378	1.62
927.11	2.62
927.841	0.62
928.573	0.62
929.305	0.62
930.036	0.62
930.768	1.62
931.499	1.62
932.23	0.62
932.962	-1.38
933.693	1.62
934.424	0.62
935.155	1.62
935.886	-1.38
936.617	0.62
937.348	-1.38
938.078	1.62
938.809	1.62
939.54	0.62
940.27	0.62
941.001	1.62
941.731	-0.38
942.461	1.62
943.191	1.62
943.922	-0.38
944.652	0.62
945.382	-0.38
946.112	2.62
946.841	0.62
947.571	2.62
948.301	1.62
949.031	0.62
949.76	2.62
950.49	0.62
951.219	0.62
951.948	-0.38
952.678	-1.38
953.407	1.62
954.136	1.62
954.865	0.62
955.594	0.62
956.323	2.62
957.052	-0.38
957.78	1.62
958.509	-1.38
959.238	-1.38
959.966	-1.38
960.695	-0.38
961.423	0.62
962.151	0.62
962.88	1.62
963.608	0.62
964.336	1.62
965.064	0.62
965.792	0.62
966.52	0.62
967.247	-2.38
967.975	0.62
968.703	1.62
969.43	0.62
970.158	-0.38
970.885	-0.38
971.613	1.62
972.34	-1.38
973.067	-0.38
973.794	-0.38
974.521	-1.38
975.248	1.62
975.975	2.62
976.702	-1.38
977.429	0.62
978.156	1.62
978.882	1.62
979.609	1.62
980.335	2.62
981.062	-1.38
981.788	0.62
982.514	0.62
983.24	1.62
983.967	1.62
984.693	1.62
985.419	3.62
986.144	-1.38
986.87	1.62
987.596	0.62
988.322	-0.38
989.047	0.62
989.773	0.62
990.498	2.62
991.224	0.62
991.949	0.62
992.674	-1.38
993.399	0.62
994.124	1.62
994.849	-1.38
995.574	2.62
996.299	1.62
997.024	1.62
997.749	0.62
998.473	-1.38
999.198	0.62
999.922	-0.38
1000.647	0.62
1001.371	2.62
1002.095	-1.38
1002.82	-0.38
1003.544	-1.38
1004.268	1.62
1004.992	0.62
1005.716	0.62
1006.439	3.62
1007.163	2.62
1007.887	3.62
1008.611	1.62
1009.334	0.62
1010.058	0.62
1010.781	0.62
1011.504	1.62
1012.228	0.62
1012.951	1.62
1013.674	-0.38
1014.397	-1.38
1015.12	0.62
