节点500_285_QEPB04081__534__15-04-26-332.txt的数据

Date: Wed Nov 12 15:04:26 CST 2025
User: PC
Spectrometer: QEPB0408
触发模式: 0
积分时间 (秒): 1.000000E-2
Scans to average: 1
启用暗噪声校正: true
启用非线性校正: false
滑动平均宽度: 0
X轴模式: Wavelengths
Number of Pixels in Spectrum: 1044
>>>>>Begin Spectral Data<<<<<
220.843	2.5
221.644	1.5
222.444	1.5
223.244	2.5
224.045	1.5
224.845	1.5
225.645	3.5
226.445	2.5
227.245	3.5
228.045	1.5
228.845	2.5
229.645	2.5
230.444	3.5
231.244	4.5
232.043	5.5
232.843	4.5
233.642	4.5
234.442	5.5
235.241	6.5
236.04	4.5
236.839	7.5
237.638	4.5
238.437	7.5
239.236	2.5
240.035	4.5
240.833	6.5
241.632	5.5
242.43	4.5
243.229	3.5
244.027	7.5
244.826	3.5
245.624	7.5
246.422	4.5
247.22	9.5
248.018	6.5
248.816	5.5
249.614	7.5
250.412	5.5
251.21	7.5
252.007	8.5
252.805	7.5
253.602	6.5
254.4	8.5
255.197	7.5
255.994	6.5
256.791	9.5
257.589	8.5
258.386	7.5
259.183	8.5
259.979	9.5
260.776	11.5
261.573	9.5
262.37	11.5
263.166	11.5
263.963	12.5
264.759	12.5
265.556	10.5
266.352	10.5
267.148	12.5
267.944	15.5
268.74	13.5
269.536	13.5
270.332	14.5
271.128	14.5
271.924	14.5
272.719	17.5
273.515	14.5
274.311	16.5
275.106	15.5
275.901	17.5
276.697	15.5
277.492	17.5
278.287	18.5
279.082	16.5
279.877	19.5
280.672	17.5
281.467	18.5
282.262	21.5
283.056	18.5
283.851	18.5
284.646	18.5
285.44	17.5
286.234	18.5
287.029	20.5
287.823	19.5
288.617	22.5
289.411	21.5
290.205	17.5
290.999	18.5
291.793	19.5
292.587	19.5
293.381	17.5
294.174	19.5
294.968	18.5
295.761	15.5
296.555	16.5
297.348	14.5
298.141	14.5
298.935	15.5
299.728	14.5
300.521	14.5
301.314	13.5
302.107	15.5
302.899	13.5
303.692	13.5
304.485	12.5
305.277	12.5
306.07	13.5
306.862	11.5
307.655	14.5
308.447	16.5
309.239	12.5
310.031	11.5
310.823	10.5
311.615	11.5
312.407	12.5
313.199	11.5
313.991	12.5
314.783	9.5
315.574	7.5
316.366	8.5
317.157	11.5
317.949	8.5
318.74	9.5
319.531	8.5
320.322	6.5
321.113	8.5
321.904	7.5
322.695	8.5
323.486	6.5
324.277	8.5
325.068	7.5
325.858	5.5
326.649	6.5
327.439	6.5
328.23	6.5
329.02	8.5
329.81	5.5
330.6	8.5
331.391	6.5
332.181	6.5
332.971	4.5
333.76	8.5
334.55	6.5
335.34	7.5
336.13	8.5
336.919	4.5
337.709	9.5
338.498	8.5
339.287	7.5
340.077	6.5
340.866	8.5
341.655	5.5
342.444	6.5
343.233	6.5
344.022	5.5
344.811	4.5
345.6	9.5
346.388	5.5
347.177	5.5
347.965	6.5
348.754	6.5
349.542	8.5
350.33	6.5
351.119	5.5
351.907	5.5
352.695	9.5
353.483	5.5
354.271	5.5
355.059	5.5
355.846	7.5
356.634	4.5
357.422	3.5
358.209	5.5
358.997	4.5
359.784	4.5
360.571	4.5
361.359	7.5
362.146	4.5
362.933	5.5
363.72	6.5
364.507	7.5
365.294	4.5
366.081	9.5
366.867	3.5
367.654	8.5
368.44	7.5
369.227	4.5
370.013	6.5
370.8	6.5
371.586	5.5
372.372	6.5
373.158	8.5
373.944	5.5
374.73	6.5
375.516	4.5
376.302	5.5
377.088	6.5
377.873	7.5
378.659	6.5
379.445	4.5
380.23	4.5
381.015	6.5
381.801	6.5
382.586	6.5
383.371	2.5
384.156	6.5
384.941	6.5
385.726	3.5
386.511	7.5
387.296	6.5
388.08	5.5
388.865	6.5
389.649	4.5
390.434	7.5
391.218	7.5
392.003	8.5
392.787	5.5
393.571	5.5
394.355	5.5
395.139	6.5
395.923	8.5
396.707	4.5
397.491	4.5
398.274	6.5
399.058	4.5
399.842	7.5
400.625	8.5
401.408	8.5
402.192	6.5
402.975	6.5
403.758	6.5
404.541	6.5
405.324	7.5
406.107	7.5
406.89	8.5
407.673	6.5
408.456	9.5
409.238	6.5
410.021	7.5
410.803	8.5
411.586	8.5
412.368	10.5
413.151	12.5
413.933	8.5
414.715	10.5
415.497	8.5
416.279	9.5
417.061	11.5
417.843	12.5
418.624	9.5
419.406	7.5
420.188	9.5
420.969	9.5
421.751	9.5
422.532	9.5
423.313	12.5
424.095	10.5
424.876	10.5
425.657	12.5
426.438	11.5
427.219	10.5
428	13.5
428.78	15.5
429.561	13.5
430.342	13.5
431.122	15.5
431.903	17.5
432.683	17.5
433.464	17.5
434.244	16.5
435.024	15.5
435.804	14.5
436.584	16.5
437.364	17.5
438.144	18.5
438.924	19.5
439.704	21.5
440.483	23.5
441.263	22.5
442.042	24.5
442.822	25.5
443.601	29.5
444.38	29.5
445.16	33.5
445.939	33.5
446.718	36.5
447.497	36.5
448.276	43.5
449.054	48.5
449.833	48.5
450.612	58.5
451.391	59.5
452.169	64.5
452.948	72.5
453.726	78.5
454.504	84.5
455.282	94.5
456.061	102.5
456.839	117.5
457.617	129.5
458.395	141.5
459.172	162.5
459.95	172.5
460.728	194.5
461.506	217.5
462.283	243.5
463.061	269.5
463.838	300.5
464.615	335.5
465.393	381.5
466.17	414.5
466.947	465.5
467.724	515.5
468.501	571.5
469.278	639.5
470.055	706.5
470.831	786.5
471.608	865.5
472.385	983.5
473.161	1077.5
473.938	1197.5
474.714	1312.5
475.49	1433.5
476.266	1592.5
477.043	1760.5
477.819	1951.5
478.595	2131.5
479.371	2352.5
480.146	2570.5
480.922	2822.5
481.698	3134.5
482.473	3428.5
483.249	3755.5
484.024	4110.5
484.8	4529.5
485.575	4963.5
486.35	5399.5
487.126	5910.5
487.901	6475.5
488.676	7072.5
489.451	7710.5
490.225	8402.5
491	9199.5
491.775	10007.5
492.55	10863.5
493.324	11769.5
494.099	12654.5
494.873	13691.5
495.647	14683.5
496.422	15784.5
497.196	16866.5
497.97	18054.5
498.744	19161.5
499.518	20304.5
500.292	21385.5
501.066	22376.5
501.839	23384.5
502.613	24263.5
503.387	25106.5
504.16	25755.5
504.934	26110.5
505.707	26400.5
506.48	26604.5
507.253	26577.5
508.027	26466.5
508.8	26174.5
509.573	25868.5
510.346	25443.5
511.118	24763.5
511.891	24056.5
512.664	23314.5
513.437	22519.5
514.209	21613.5
514.982	20750.5
515.754	19847.5
516.526	19046.5
517.298	18243.5
518.071	17390.5
518.843	16760.5
519.615	16129.5
520.387	15460.5
521.159	14822.5
521.93	14307.5
522.702	13702.5
523.474	13156.5
524.245	12561.5
525.017	12070.5
525.788	11630.5
526.56	11090.5
527.331	10553.5
528.102	10139.5
528.873	9678.5
529.644	9201.5
530.415	8748.5
531.186	8310.5
531.957	7909.5
532.728	7513.5
533.498	7131.5
534.269	6726.5
535.039	6364.5
535.81	6054.5
536.58	5672.5
537.351	5349.5
538.121	5064.5
538.891	4807.5
539.661	4534.5
540.431	4309.5
541.201	4063.5
541.971	3862.5
542.741	3652.5
543.51	3463.5
544.28	3301.5
545.05	3144.5
545.819	2986.5
546.588	2822.5
547.358	2685.5
548.127	2564.5
548.896	2438.5
549.665	2312.5
550.434	2174.5
551.203	2072.5
551.972	1952.5
552.741	1847.5
553.51	1745.5
554.278	1660.5
555.047	1562.5
555.815	1467.5
556.584	1396.5
557.352	1313.5
558.121	1245.5
558.889	1181.5
559.657	1126.5
560.425	1045.5
561.193	985.5
561.961	948.5
562.729	875.5
563.496	838.5
564.264	787.5
565.032	752.5
565.799	709.5
566.567	660.5
567.334	626.5
568.101	599.5
568.869	556.5
569.636	522.5
570.403	494.5
571.17	466.5
571.937	440.5
572.704	415.5
573.471	396.5
574.237	374.5
575.004	353.5
575.771	327.5
576.537	314.5
577.303	288.5
578.07	281.5
578.836	260.5
579.602	242.5
580.368	226.5
581.134	221.5
581.9	213.5
582.666	199.5
583.432	189.5
584.198	179.5
584.964	166.5
585.729	159.5
586.495	151.5
587.26	141.5
588.025	138.5
588.791	129.5
589.556	124.5
590.321	114.5
591.086	109.5
591.851	105.5
592.616	98.5
593.381	94.5
594.146	87.5
594.911	86.5
595.675	82.5
596.44	78.5
597.204	73.5
597.969	69.5
598.733	67.5
599.497	63.5
600.261	62.5
601.025	57.5
601.79	55.5
602.553	51.5
603.317	53.5
604.081	48.5
604.845	48.5
605.609	48.5
606.372	43.5
607.136	37.5
607.899	40.5
608.662	38.5
609.426	38.5
610.189	37.5
610.952	34.5
611.715	34.5
612.478	33.5
613.241	31.5
614.004	33.5
614.767	27.5
615.529	28.5
616.292	27.5
617.055	24.5
617.817	25.5
618.579	24.5
619.342	21.5
620.104	24.5
620.866	20.5
621.628	23.5
622.39	19.5
623.152	18.5
623.914	19.5
624.676	17.5
625.438	16.5
626.199	16.5
626.961	14.5
627.722	15.5
628.484	14.5
629.245	16.5
630.006	15.5
630.768	13.5
631.529	14.5
632.29	13.5
633.051	11.5
633.812	12.5
634.573	11.5
635.333	13.5
636.094	12.5
636.855	12.5
637.615	11.5
638.376	10.5
639.136	10.5
639.896	12.5
640.657	12.5
641.417	9.5
642.177	10.5
642.937	9.5
643.697	8.5
644.457	7.5
645.216	8.5
645.976	7.5
646.736	11.5
647.495	10.5
648.255	9.5
649.014	7.5
649.774	9.5
650.533	7.5
651.292	6.5
652.051	9.5
652.81	6.5
653.569	9.5
654.328	8.5
655.087	6.5
655.846	6.5
656.604	9.5
657.363	6.5
658.121	4.5
658.88	6.5
659.638	4.5
660.397	6.5
661.155	4.5
661.913	5.5
662.671	4.5
663.429	7.5
664.187	4.5
664.945	5.5
665.703	7.5
666.46	4.5
667.218	5.5
667.976	5.5
668.733	6.5
669.49	4.5
670.248	9.5
671.005	4.5
671.762	2.5
672.519	7.5
673.276	4.5
674.033	2.5
674.79	6.5
675.547	5.5
676.304	6.5
677.06	3.5
677.817	4.5
678.574	3.5
679.33	6.5
680.086	4.5
680.843	5.5
681.599	4.5
682.355	2.5
683.111	5.5
683.867	3.5
684.623	5.5
685.379	2.5
686.135	3.5
686.89	4.5
687.646	1.5
688.402	4.5
689.157	4.5
689.912	4.5
690.668	3.5
691.423	5.5
692.178	4.5
692.933	3.5
693.688	2.5
694.443	2.5
695.198	2.5
695.953	3.5
696.708	3.5
697.462	8.5
698.217	6.5
698.972	4.5
699.726	2.5
700.48	2.5
701.235	5.5
701.989	3.5
702.743	2.5
703.497	4.5
704.251	2.5
705.005	4.5
705.759	2.5
706.513	4.5
707.266	3.5
708.02	4.5
708.774	4.5
709.527	4.5
710.28	2.5
711.034	2.5
711.787	4.5
712.54	4.5
713.293	2.5
714.046	3.5
714.799	4.5
715.552	3.5
716.305	3.5
717.058	5.5
717.81	2.5
718.563	2.5
719.315	2.5
720.068	5.5
720.82	6.5
721.573	5.5
722.325	3.5
723.077	5.5
723.829	1.5
724.581	5.5
725.333	5.5
726.085	5.5
726.836	4.5
727.588	4.5
728.34	5.5
729.091	4.5
729.843	5.5
730.594	3.5
731.346	5.5
732.097	4.5
732.848	4.5
733.599	5.5
734.35	4.5
735.101	5.5
735.852	3.5
736.603	6.5
737.354	4.5
738.104	2.5
738.855	3.5
739.605	3.5
740.356	4.5
741.106	5.5
741.856	5.5
742.607	4.5
743.357	5.5
744.107	4.5
744.857	4.5
745.607	5.5
746.357	6.5
747.106	5.5
747.856	5.5
748.606	7.5
749.355	5.5
750.105	2.5
750.854	6.5
751.603	6.5
752.353	5.5
753.102	5.5
753.851	8.5
754.6	6.5
755.349	7.5
756.098	7.5
756.847	5.5
757.595	6.5
758.344	6.5
759.093	8.5
759.841	6.5
760.589	6.5
761.338	6.5
762.086	7.5
762.834	4.5
763.582	5.5
764.331	5.5
765.079	8.5
765.826	7.5
766.574	7.5
767.322	6.5
768.07	6.5
768.817	6.5
769.565	5.5
770.312	9.5
771.06	9.5
771.807	8.5
772.554	9.5
773.302	7.5
774.049	9.5
774.796	5.5
775.543	10.5
776.29	9.5
777.036	10.5
777.783	6.5
778.53	8.5
779.276	8.5
780.023	10.5
780.769	7.5
781.516	8.5
782.262	9.5
783.008	10.5
783.754	7.5
784.5	9.5
785.246	8.5
785.992	9.5
786.738	10.5
787.484	10.5
788.23	9.5
788.975	10.5
789.721	8.5
790.466	10.5
791.212	10.5
791.957	8.5
792.702	7.5
793.447	8.5
794.193	9.5
794.938	8.5
795.683	9.5
796.427	6.5
797.172	9.5
797.917	7.5
798.662	8.5
799.406	7.5
800.151	6.5
800.895	8.5
801.64	6.5
802.384	8.5
803.128	5.5
803.872	7.5
804.616	6.5
805.36	6.5
806.104	6.5
806.848	7.5
807.592	8.5
808.336	7.5
809.079	7.5
809.823	6.5
810.566	4.5
811.31	6.5
812.053	2.5
812.796	8.5
813.539	3.5
814.283	6.5
815.026	6.5
815.769	6.5
816.511	8.5
817.254	3.5
817.997	6.5
818.74	5.5
819.482	4.5
820.225	5.5
820.967	4.5
821.71	5.5
822.452	6.5
823.194	4.5
823.936	5.5
824.678	4.5
825.42	3.5
826.162	5.5
826.904	5.5
827.646	5.5
828.388	4.5
829.129	1.5
829.871	4.5
830.612	4.5
831.354	4.5
832.095	4.5
832.836	3.5
833.577	4.5
834.319	5.5
835.06	3.5
835.801	4.5
836.542	2.5
837.282	5.5
838.023	2.5
838.764	3.5
839.504	3.5
840.245	4.5
840.985	5.5
841.726	3.5
842.466	3.5
843.206	3.5
843.946	4.5
844.687	1.5
845.427	4.5
846.166	2.5
846.906	1.5
847.646	4.5
848.386	4.5
849.125	1.5
849.865	1.5
850.605	3.5
851.344	3.5
852.083	2.5
852.823	2.5
853.562	1.5
854.301	3.5
855.04	5.5
855.779	3.5
856.518	2.5
857.257	3.5
857.995	2.5
858.734	-0.5
859.473	1.5
860.211	2.5
860.95	1.5
861.688	2.5
862.426	2.5
863.165	3.5
863.903	2.5
864.641	1.5
865.379	2.5
866.117	3.5
866.855	1.5
867.593	2.5
868.33	1.5
869.068	2.5
869.806	0.5
870.543	4.5
871.28	1.5
872.018	3.5
872.755	2.5
873.492	1.5
874.229	4.5
874.967	1.5
875.703	2.5
876.44	2.5
877.177	2.5
877.914	2.5
878.651	1.5
879.387	1.5
880.124	0.5
880.86	1.5
881.597	2.5
882.333	0.5
883.069	0.5
883.806	-0.5
884.542	2.5
885.278	0.5
886.014	-0.5
886.749	0.5
887.485	1.5
888.221	0.5
888.957	0.5
889.692	3.5
890.428	2.5
891.163	0.5
891.899	0.5
892.634	1.5
893.369	2.5
894.104	2.5
894.839	1.5
895.574	1.5
896.309	-0.5
897.044	2.5
897.779	2.5
898.514	1.5
899.248	3.5
899.983	1.5
900.717	-1.5
901.452	2.5
902.186	2.5
902.92	-1.5
903.654	0.5
904.389	1.5
905.123	-0.5
905.857	2.5
906.59	-1.5
907.324	2.5
908.058	2.5
908.792	2.5
909.525	2.5
910.259	1.5
910.992	2.5
911.726	-0.5
912.459	0.5
913.192	-1.5
913.925	0.5
914.658	0.5
915.391	-1.5
916.124	-0.5
916.857	-1.5
917.59	0.5
918.323	2.5
919.055	0.5
919.788	-0.5
920.521	-1.5
921.253	1.5
921.985	1.5
922.718	0.5
923.45	-0.5
924.182	-0.5
924.914	1.5
925.646	0.5
926.378	1.5
927.11	-1.5
927.841	-0.5
928.573	0.5
929.305	-0.5
930.036	1.5
930.768	1.5
931.499	0.5
932.23	0.5
932.962	-1.5
933.693	0.5
934.424	-0.5
935.155	2.5
935.886	0.5
936.617	1.5
937.348	1.5
938.078	-0.5
938.809	2.5
939.54	-1.5
940.27	1.5
941.001	1.5
941.731	1.5
942.461	0.5
943.191	2.5
943.922	1.5
944.652	2.5
945.382	0.5
946.112	-0.5
946.841	-1.5
947.571	-0.5
948.301	1.5
949.031	0.5
949.76	0.5
950.49	0.5
951.219	1.5
951.948	-0.5
952.678	1.5
953.407	2.5
954.136	0.5
954.865	0.5
955.594	2.5
956.323	-0.5
957.052	0.5
957.78	1.5
958.509	-0.5
959.238	1.5
959.966	0.5
960.695	0.5
961.423	0.5
962.151	-1.5
962.88	0.5
963.608	0.5
964.336	-0.5
965.064	-0.5
965.792	1.5
966.52	0.5
967.247	1.5
967.975	0.5
968.703	0.5
969.43	1.5
970.158	2.5
970.885	0.5
971.613	2.5
972.34	0.5
973.067	1.5
973.794	0.5
974.521	0.5
975.248	1.5
975.975	1.5
976.702	1.5
977.429	0.5
978.156	0.5
978.882	1.5
979.609	-0.5
980.335	2.5
981.062	1.5
981.788	-0.5
982.514	0.5
983.24	1.5
983.967	0.5
984.693	1.5
985.419	1.5
986.144	-0.5
986.87	0.5
987.596	0.5
988.322	0.5
989.047	0.5
989.773	0.5
990.498	0.5
991.224	-1.5
991.949	-0.5
992.674	1.5
993.399	0.5
994.124	1.5
994.849	-0.5
995.574	0.5
996.299	0.5
997.024	-0.5
997.749	0.5
998.473	0.5
999.198	2.5
999.922	-0.5
1000.647	-0.5
1001.371	2.5
1002.095	0.5
1002.82	-0.5
1003.544	-0.5
1004.268	0.5
1004.992	1.5
1005.716	0.5
1006.439	0.5
1007.163	2.5
1007.887	1.5
1008.611	1.5
1009.334	1.5
1010.058	1.5
1010.781	0.5
1011.504	0.5
1012.228	2.5
1012.951	1.5
1013.674	-0.5
1014.397	0.5
1015.12	-3.5
