节点500_285_QEPB04081__63__14-56-36-357.txt的数据

Date: Wed Nov 12 14:56:36 CST 2025
User: PC
Spectrometer: QEPB0408
触发模式: 0
积分时间 (秒): 1.000000E-2
Scans to average: 1
启用暗噪声校正: true
启用非线性校正: false
滑动平均宽度: 0
X轴模式: Wavelengths
Number of Pixels in Spectrum: 1044
>>>>>Begin Spectral Data<<<<<
220.843	1
221.644	1
222.444	2
223.244	-1
224.045	4
224.845	3
225.645	1
226.445	1
227.245	1
228.045	1
228.845	5
229.645	4
230.444	1
231.244	4
232.043	3
232.843	2
233.642	2
234.442	4
235.241	4
236.04	3
236.839	3
237.638	6
238.437	4
239.236	6
240.035	3
240.833	4
241.632	3
242.43	4
243.229	5
244.027	5
244.826	6
245.624	5
246.422	6
247.22	6
248.018	5
248.816	7
249.614	7
250.412	8
251.21	6
252.007	7
252.805	8
253.602	4
254.4	8
255.197	6
255.994	9
256.791	11
257.589	9
258.386	9
259.183	7
259.979	10
260.776	11
261.573	9
262.37	11
263.166	11
263.963	13
264.759	12
265.556	13
266.352	12
267.148	13
267.944	13
268.74	14
269.536	17
270.332	15
271.128	17
271.924	16
272.719	18
273.515	17
274.311	18
275.106	20
275.901	16
276.697	20
277.492	19
278.287	18
279.082	19
279.877	20
280.672	19
281.467	21
282.262	17
283.056	19
283.851	22
284.646	20
285.44	20
286.234	20
287.029	22
287.823	19
288.617	18
289.411	20
290.205	19
290.999	21
291.793	17
292.587	19
293.381	18
294.174	20
294.968	19
295.761	13
296.555	16
297.348	15
298.141	15
298.935	18
299.728	15
300.521	16
301.314	17
302.107	11
302.899	14
303.692	12
304.485	14
305.277	14
306.07	11
306.862	13
307.655	14
308.447	11
309.239	12
310.031	12
310.823	12
311.615	9
312.407	10
313.199	12
313.991	9
314.783	9
315.574	11
316.366	11
317.157	9
317.949	8
318.74	6
319.531	12
320.322	7
321.113	9
321.904	8
322.695	7
323.486	8
324.277	7
325.068	10
325.858	6
326.649	7
327.439	9
328.23	6
329.02	9
329.81	6
330.6	7
331.391	5
332.181	6
332.971	8
333.76	7
334.55	7
335.34	6
336.13	7
336.919	6
337.709	5
338.498	7
339.287	8
340.077	9
340.866	7
341.655	7
342.444	6
343.233	7
344.022	9
344.811	5
345.6	7
346.388	7
347.177	8
347.965	6
348.754	5
349.542	7
350.33	5
351.119	5
351.907	9
352.695	5
353.483	6
354.271	5
355.059	4
355.846	6
356.634	5
357.422	7
358.209	6
358.997	6
359.784	6
360.571	4
361.359	5
362.146	9
362.933	7
363.72	6
364.507	6
365.294	5
366.081	6
366.867	3
367.654	6
368.44	3
369.227	7
370.013	4
370.8	8
371.586	4
372.372	4
373.158	4
373.944	6
374.73	5
375.516	3
376.302	7
377.088	5
377.873	5
378.659	5
379.445	6
380.23	7
381.015	6
381.801	7
382.586	7
383.371	4
384.156	8
384.941	5
385.726	7
386.511	4
387.296	5
388.08	6
388.865	6
389.649	7
390.434	7
391.218	5
392.003	6
392.787	6
393.571	7
394.355	6
395.139	9
395.923	7
396.707	8
397.491	7
398.274	6
399.058	6
399.842	8
400.625	8
401.408	7
402.192	7
402.975	11
403.758	7
404.541	6
405.324	6
406.107	7
406.89	7
407.673	7
408.456	8
409.238	10
410.021	9
410.803	8
411.586	9
412.368	10
413.151	8
413.933	9
414.715	9
415.497	12
416.279	9
417.061	8
417.843	11
418.624	9
419.406	9
420.188	11
420.969	11
421.751	13
422.532	12
423.313	13
424.095	12
424.876	11
425.657	13
426.438	11
427.219	13
428	15
428.78	15
429.561	12
430.342	13
431.122	17
431.903	14
432.683	16
433.464	13
434.244	17
435.024	18
435.804	15
436.584	19
437.364	17
438.144	20
438.924	18
439.704	25
440.483	23
441.263	25
442.042	27
442.822	25
443.601	29
444.38	28
445.16	30
445.939	33
446.718	37
447.497	35
448.276	38
449.054	39
449.833	49
450.612	48
451.391	52
452.169	60
452.948	67
453.726	67
454.504	74
455.282	88
456.061	91
456.839	98
457.617	115
458.395	123
459.172	139
459.95	152
460.728	169
461.506	188
462.283	209
463.061	241
463.838	265
464.615	297
465.393	333
466.17	361
466.947	415
467.724	456
468.501	524
469.278	576
470.055	663
470.831	721
471.608	810
472.385	907
473.161	1012
473.938	1132
474.714	1240
475.49	1385
476.266	1544
477.043	1728
477.819	1911
478.595	2108
479.371	2329
480.146	2579
480.922	2863
481.698	3196
482.473	3534
483.249	3920
484.024	4347
484.8	4768
485.575	5263
486.35	5820
487.126	6406
487.901	7116
488.676	7821
489.451	8603
490.225	9451
491	10383
491.775	11361
492.55	12414
493.324	13538
494.099	14636
494.873	15702
495.647	17083
496.422	18313
497.196	19597
497.97	20903
498.744	22207
499.518	23422
500.292	24657
501.066	25688
501.839	26648
502.613	27410
503.387	28124
504.16	28705
504.934	28903
505.707	28859
506.48	28853
507.253	28525
508.027	28061
508.8	27609
509.573	26904
510.346	26067
511.118	25126
511.891	24294
512.664	23287
513.437	22334
514.209	21298
514.982	20378
515.754	19392
516.526	18575
517.298	17710
518.071	16885
518.843	16288
519.615	15606
520.387	15009
521.159	14433
521.93	13848
522.702	13355
523.474	12779
524.245	12194
525.017	11639
525.788	11169
526.56	10675
527.331	10154
528.102	9717
528.873	9242
529.644	8706
530.415	8267
531.186	7831
531.957	7430
532.728	7057
533.498	6649
534.269	6261
535.039	5923
535.81	5603
536.58	5276
537.351	4951
538.121	4674
538.891	4462
539.661	4196
540.431	3954
541.201	3746
541.971	3532
542.741	3379
543.51	3200
544.28	3049
545.05	2890
545.819	2757
546.588	2617
547.358	2475
548.127	2363
548.896	2234
549.665	2128
550.434	1999
551.203	1901
551.972	1800
552.741	1689
553.51	1601
554.278	1518
555.047	1423
555.815	1360
556.584	1269
557.352	1195
558.121	1132
558.889	1077
559.657	1007
560.425	952
561.193	890
561.961	838
562.729	784
563.496	757
564.264	715
565.032	673
565.799	639
566.567	607
567.334	568
568.101	537
568.869	504
569.636	485
570.403	445
571.17	419
571.937	403
572.704	377
573.471	353
574.237	340
575.004	317
575.771	296
576.537	279
577.303	256
578.07	249
578.836	229
579.602	218
580.368	209
581.134	195
581.9	187
582.666	175
583.432	163
584.198	161
584.964	148
585.729	144
586.495	135
587.26	131
588.025	124
588.791	114
589.556	112
590.321	101
591.086	99
591.851	92
592.616	93
593.381	82
594.146	80
594.911	79
595.675	76
596.44	71
597.204	68
597.969	62
598.733	62
599.497	61
600.261	58
601.025	55
601.79	55
602.553	47
603.317	46
604.081	49
604.845	43
605.609	42
606.372	40
607.136	35
607.899	37
608.662	35
609.426	32
610.189	35
610.952	29
611.715	32
612.478	29
613.241	29
614.004	31
614.767	28
615.529	26
616.292	26
617.055	23
617.817	22
618.579	23
619.342	22
620.104	19
620.866	20
621.628	21
622.39	19
623.152	17
623.914	17
624.676	19
625.438	17
626.199	16
626.961	13
627.722	16
628.484	15
629.245	13
630.006	15
630.768	12
631.529	13
632.29	10
633.051	14
633.812	12
634.573	11
635.333	11
636.094	8
636.855	11
637.615	11
638.376	9
639.136	11
639.896	8
640.657	10
641.417	10
642.177	10
642.937	8
643.697	9
644.457	9
645.216	7
645.976	9
646.736	9
647.495	8
648.255	8
649.014	9
649.774	7
650.533	9
651.292	7
652.051	4
652.81	7
653.569	7
654.328	5
655.087	7
655.846	7
656.604	7
657.363	4
658.121	6
658.88	7
659.638	6
660.397	8
661.155	4
661.913	6
662.671	5
663.429	5
664.187	8
664.945	6
665.703	6
666.46	7
667.218	5
667.976	5
668.733	2
669.49	8
670.248	6
671.005	5
671.762	3
672.519	3
673.276	7
674.033	7
674.79	5
675.547	6
676.304	3
677.06	6
677.817	3
678.574	8
679.33	3
680.086	4
680.843	5
681.599	1
682.355	5
683.111	3
683.867	3
684.623	4
685.379	1
686.135	6
686.89	4
687.646	5
688.402	4
689.157	3
689.912	4
690.668	3
691.423	3
692.178	5
692.933	4
693.688	5
694.443	4
695.198	4
695.953	3
696.708	3
697.462	3
698.217	2
698.972	4
699.726	5
700.48	5
701.235	2
701.989	5
702.743	3
703.497	3
704.251	4
705.005	4
705.759	6
706.513	6
707.266	3
708.02	3
708.774	4
709.527	5
710.28	2
711.034	3
711.787	0
712.54	4
713.293	6
714.046	6
714.799	4
715.552	3
716.305	5
717.058	6
717.81	4
718.563	5
719.315	1
720.068	4
720.82	3
721.573	3
722.325	4
723.077	4
723.829	2
724.581	4
725.333	3
726.085	5
726.836	3
727.588	5
728.34	4
729.091	4
729.843	5
730.594	5
731.346	6
732.097	2
732.848	3
733.599	4
734.35	6
735.101	5
735.852	4
736.603	4
737.354	4
738.104	5
738.855	7
739.605	5
740.356	5
741.106	4
741.856	6
742.607	5
743.357	6
744.107	7
744.857	5
745.607	8
746.357	6
747.106	4
747.856	6
748.606	5
749.355	7
750.105	6
750.854	5
751.603	4
752.353	6
753.102	5
753.851	6
754.6	8
755.349	6
756.098	5
756.847	6
757.595	6
758.344	6
759.093	5
759.841	7
760.589	6
761.338	7
762.086	7
762.834	6
763.582	5
764.331	7
765.079	6
765.826	8
766.574	5
767.322	9
768.07	9
768.817	7
769.565	10
770.312	6
771.06	8
771.807	7
772.554	9
773.302	9
774.049	8
774.796	9
775.543	8
776.29	10
777.036	8
777.783	9
778.53	9
779.276	9
780.023	7
780.769	7
781.516	9
782.262	9
783.008	8
783.754	12
784.5	9
785.246	8
785.992	11
786.738	10
787.484	11
788.23	9
788.975	9
789.721	7
790.466	12
791.212	9
791.957	9
792.702	12
793.447	9
794.193	11
794.938	9
795.683	8
796.427	10
797.172	7
797.917	8
798.662	9
799.406	7
800.151	6
800.895	9
801.64	7
802.384	5
803.128	7
803.872	8
804.616	8
805.36	6
806.104	6
806.848	6
807.592	6
808.336	8
809.079	5
809.823	5
810.566	7
811.31	6
812.053	5
812.796	5
813.539	5
814.283	5
815.026	5
815.769	5
816.511	6
817.254	5
817.997	3
818.74	4
819.482	5
820.225	4
820.967	7
821.71	4
822.452	5
823.194	4
823.936	3
824.678	2
825.42	2
826.162	3
826.904	5
827.646	4
828.388	4
829.129	5
829.871	4
830.612	1
831.354	3
832.095	3
832.836	6
833.577	5
834.319	3
835.06	5
835.801	3
836.542	5
837.282	4
838.023	4
838.764	5
839.504	3
840.245	4
840.985	4
841.726	3
842.466	4
843.206	3
843.946	5
844.687	4
845.427	2
846.166	2
846.906	3
847.646	5
848.386	2
849.125	4
849.865	2
850.605	2
851.344	2
852.083	3
852.823	4
853.562	2
854.301	3
855.04	3
855.779	1
856.518	3
857.257	4
857.995	3
858.734	3
859.473	3
860.211	3
860.95	1
861.688	1
862.426	1
863.165	3
863.903	3
864.641	4
865.379	1
866.117	1
866.855	3
867.593	1
868.33	1
869.068	3
869.806	-1
870.543	3
871.28	0
872.018	4
872.755	2
873.492	2
874.229	4
874.967	-1
875.703	1
876.44	3
877.177	1
877.914	3
878.651	1
879.387	1
880.124	0
880.86	2
881.597	-1
882.333	3
883.069	3
883.806	1
884.542	1
885.278	0
886.014	1
886.749	1
887.485	1
888.221	0
888.957	1
889.692	2
890.428	-1
891.163	1
891.899	2
892.634	0
893.369	-1
894.104	0
894.839	2
895.574	2
896.309	3
897.044	1
897.779	-1
898.514	2
899.248	1
899.983	-2
900.717	1
901.452	0
902.186	1
902.92	-1
903.654	3
904.389	-1
905.123	1
905.857	1
906.59	0
907.324	1
908.058	0
908.792	-1
909.525	2
910.259	-2
910.992	1
911.726	-1
912.459	2
913.192	-2
913.925	0
914.658	0
915.391	-1
916.124	-1
916.857	-1
917.59	0
918.323	0
919.055	1
919.788	1
920.521	2
921.253	0
921.985	1
922.718	1
923.45	-1
924.182	-1
924.914	2
925.646	1
926.378	2
927.11	-1
927.841	0
928.573	1
929.305	0
930.036	1
930.768	0
931.499	0
932.23	3
932.962	0
933.693	1
934.424	0
935.155	-1
935.886	3
936.617	2
937.348	1
938.078	-1
938.809	-2
939.54	1
940.27	-1
941.001	0
941.731	1
942.461	-2
943.191	1
943.922	1
944.652	1
945.382	1
946.112	1
946.841	0
947.571	-1
948.301	-2
949.031	1
949.76	1
950.49	0
951.219	1
951.948	-1
952.678	-2
953.407	2
954.136	-2
954.865	0
955.594	1
956.323	3
957.052	0
957.78	0
958.509	0
959.238	0
959.966	-1
960.695	0
961.423	-1
962.151	2
962.88	1
963.608	0
964.336	-3
965.064	0
965.792	-1
966.52	0
967.247	0
967.975	0
968.703	1
969.43	2
970.158	-1
970.885	1
971.613	1
972.34	-1
973.067	1
973.794	0
974.521	1
975.248	1
975.975	-1
976.702	-2
977.429	3
978.156	1
978.882	-2
979.609	-1
980.335	1
981.062	2
981.788	2
982.514	3
983.24	1
983.967	0
984.693	0
985.419	-1
986.144	0
986.87	0
987.596	0
988.322	2
989.047	-1
989.773	-1
990.498	1
991.224	1
991.949	2
992.674	-2
993.399	1
994.124	-1
994.849	0
995.574	1
996.299	-1
997.024	1
997.749	-3
998.473	-1
999.198	0
999.922	1
1000.647	2
1001.371	2
1002.095	-1
1002.82	0
1003.544	-1
1004.268	2
1004.992	1
1005.716	1
1006.439	1
1007.163	0
1007.887	2
1008.611	1
1009.334	1
1010.058	-2
1010.781	0
1011.504	2
1012.228	-1
1012.951	1
1013.674	0
1014.397	-1
1015.12	0
