节点500_285_QEPB04081__42__14-56-15-398.txt的数据

Date: Wed Nov 12 14:56:15 CST 2025
User: PC
Spectrometer: QEPB0408
触发模式: 0
积分时间 (秒): 1.000000E-2
Scans to average: 1
启用暗噪声校正: true
启用非线性校正: false
滑动平均宽度: 0
X轴模式: Wavelengths
Number of Pixels in Spectrum: 1044
>>>>>Begin Spectral Data<<<<<
220.843	2.62
221.644	-1.38
222.444	-0.38
223.244	3.62
224.045	0.62
224.845	4.62
225.645	1.62
226.445	3.62
227.245	0.62
228.045	4.62
228.845	1.62
229.645	1.62
230.444	2.62
231.244	3.62
232.043	0.62
232.843	4.62
233.642	0.62
234.442	2.62
235.241	3.62
236.04	3.62
236.839	1.62
237.638	3.62
238.437	2.62
239.236	3.62
240.035	4.62
240.833	1.62
241.632	2.62
242.43	6.62
243.229	6.62
244.027	4.62
244.826	6.62
245.624	4.62
246.422	5.62
247.22	3.62
248.018	6.62
248.816	4.62
249.614	7.62
250.412	4.62
251.21	4.62
252.007	6.62
252.805	7.62
253.602	5.62
254.4	4.62
255.197	8.62
255.994	8.62
256.791	5.62
257.589	11.62
258.386	8.62
259.183	11.62
259.979	9.62
260.776	9.62
261.573	10.62
262.37	10.62
263.166	10.62
263.963	12.62
264.759	11.62
265.556	14.62
266.352	13.62
267.148	12.62
267.944	13.62
268.74	14.62
269.536	15.62
270.332	16.62
271.128	15.62
271.924	15.62
272.719	17.62
273.515	16.62
274.311	17.62
275.106	20.62
275.901	17.62
276.697	19.62
277.492	19.62
278.287	18.62
279.082	17.62
279.877	18.62
280.672	18.62
281.467	18.62
282.262	19.62
283.056	19.62
283.851	22.62
284.646	19.62
285.44	18.62
286.234	17.62
287.029	18.62
287.823	21.62
288.617	19.62
289.411	17.62
290.205	20.62
290.999	16.62
291.793	17.62
292.587	17.62
293.381	17.62
294.174	18.62
294.968	13.62
295.761	13.62
296.555	16.62
297.348	16.62
298.141	12.62
298.935	13.62
299.728	17.62
300.521	13.62
301.314	15.62
302.107	14.62
302.899	11.62
303.692	14.62
304.485	13.62
305.277	10.62
306.07	11.62
306.862	10.62
307.655	11.62
308.447	10.62
309.239	9.62
310.031	11.62
310.823	8.62
311.615	10.62
312.407	8.62
313.199	10.62
313.991	8.62
314.783	7.62
315.574	10.62
316.366	9.62
317.157	8.62
317.949	8.62
318.74	10.62
319.531	6.62
320.322	6.62
321.113	4.62
321.904	3.62
322.695	6.62
323.486	7.62
324.277	8.62
325.068	5.62
325.858	7.62
326.649	7.62
327.439	6.62
328.23	6.62
329.02	7.62
329.81	6.62
330.6	5.62
331.391	6.62
332.181	6.62
332.971	6.62
333.76	4.62
334.55	6.62
335.34	8.62
336.13	6.62
336.919	6.62
337.709	6.62
338.498	8.62
339.287	4.62
340.077	5.62
340.866	4.62
341.655	4.62
342.444	3.62
343.233	5.62
344.022	5.62
344.811	4.62
345.6	5.62
346.388	3.62
347.177	8.62
347.965	5.62
348.754	3.62
349.542	8.62
350.33	5.62
351.119	7.62
351.907	3.62
352.695	2.62
353.483	7.62
354.271	4.62
355.059	5.62
355.846	4.62
356.634	5.62
357.422	4.62
358.209	2.62
358.997	5.62
359.784	5.62
360.571	6.62
361.359	6.62
362.146	3.62
362.933	4.62
363.72	6.62
364.507	4.62
365.294	8.62
366.081	5.62
366.867	3.62
367.654	6.62
368.44	4.62
369.227	5.62
370.013	5.62
370.8	4.62
371.586	6.62
372.372	7.62
373.158	3.62
373.944	5.62
374.73	2.62
375.516	4.62
376.302	6.62
377.088	6.62
377.873	5.62
378.659	4.62
379.445	4.62
380.23	5.62
381.015	5.62
381.801	5.62
382.586	4.62
383.371	6.62
384.156	5.62
384.941	4.62
385.726	5.62
386.511	6.62
387.296	4.62
388.08	4.62
388.865	6.62
389.649	4.62
390.434	6.62
391.218	6.62
392.003	6.62
392.787	5.62
393.571	7.62
394.355	5.62
395.139	5.62
395.923	5.62
396.707	7.62
397.491	6.62
398.274	5.62
399.058	10.62
399.842	7.62
400.625	8.62
401.408	5.62
402.192	4.62
402.975	6.62
403.758	5.62
404.541	8.62
405.324	7.62
406.107	10.62
406.89	8.62
407.673	8.62
408.456	9.62
409.238	5.62
410.021	9.62
410.803	6.62
411.586	9.62
412.368	6.62
413.151	10.62
413.933	9.62
414.715	9.62
415.497	10.62
416.279	7.62
417.061	10.62
417.843	8.62
418.624	7.62
419.406	8.62
420.188	9.62
420.969	8.62
421.751	11.62
422.532	10.62
423.313	10.62
424.095	10.62
424.876	10.62
425.657	12.62
426.438	16.62
427.219	11.62
428	12.62
428.78	10.62
429.561	12.62
430.342	14.62
431.122	12.62
431.903	16.62
432.683	16.62
433.464	11.62
434.244	15.62
435.024	16.62
435.804	15.62
436.584	18.62
437.364	16.62
438.144	19.62
438.924	21.62
439.704	21.62
440.483	19.62
441.263	23.62
442.042	21.62
442.822	24.62
443.601	26.62
444.38	29.62
445.16	30.62
445.939	30.62
446.718	32.62
447.497	35.62
448.276	38.62
449.054	42.62
449.833	43.62
450.612	46.62
451.391	55.62
452.169	56.62
452.948	60.62
453.726	66.62
454.504	71.62
455.282	79.62
456.061	89.62
456.839	97.62
457.617	106.62
458.395	120.62
459.172	135.62
459.95	148.62
460.728	166.62
461.506	175.62
462.283	211.62
463.061	231.62
463.838	259.62
464.615	290.62
465.393	324.62
466.17	357.62
466.947	408.62
467.724	461.62
468.501	511.62
469.278	572.62
470.055	639.62
470.831	712.62
471.608	789.62
472.385	898.62
473.161	999.62
473.938	1107.62
474.714	1243.62
475.49	1367.62
476.266	1509.62
477.043	1696.62
477.819	1903.62
478.595	2080.62
479.371	2320.62
480.146	2566.62
480.922	2848.62
481.698	3171.62
482.473	3516.62
483.249	3921.62
484.024	4332.62
484.8	4800.62
485.575	5280.62
486.35	5862.62
487.126	6454.62
487.901	7137.62
488.676	7860.62
489.451	8690.62
490.225	9535.62
491	10468.62
491.775	11508.62
492.55	12548.62
493.324	13646.62
494.099	14764.62
494.873	15887.62
495.647	17256.62
496.422	18528.62
497.196	19853.62
497.97	21184.62
498.744	22486.62
499.518	23755.62
500.292	24885.62
501.066	25967.62
501.839	26905.62
502.613	27684.62
503.387	28424.62
504.16	28912.62
504.934	29065.62
505.707	29036.62
506.48	28890.62
507.253	28619.62
508.027	28008.62
508.8	27587.62
509.573	26844.62
510.346	26021.62
511.118	25014.62
511.891	24075.62
512.664	23139.62
513.437	22078.62
514.209	21085.62
514.982	20211.62
515.754	19258.62
516.526	18339.62
517.298	17504.62
518.071	16767.62
518.843	16132.62
519.615	15504.62
520.387	14871.62
521.159	14298.62
521.93	13739.62
522.702	13159.62
523.474	12635.62
524.245	12127.62
525.017	11575.62
525.788	11137.62
526.56	10571.62
527.331	10009.62
528.102	9570.62
528.873	9131.62
529.644	8636.62
530.415	8178.62
531.186	7724.62
531.957	7334.62
532.728	6935.62
533.498	6543.62
534.269	6175.62
535.039	5853.62
535.81	5470.62
536.58	5173.62
537.351	4853.62
538.121	4601.62
538.891	4363.62
539.661	4125.62
540.431	3920.62
541.201	3684.62
541.971	3465.62
542.741	3304.62
543.51	3153.62
544.28	3002.62
545.05	2856.62
545.819	2718.62
546.588	2584.62
547.358	2460.62
548.127	2310.62
548.896	2192.62
549.665	2072.62
550.434	1991.62
551.203	1852.62
551.972	1758.62
552.741	1658.62
553.51	1562.62
554.278	1478.62
555.047	1387.62
555.815	1319.62
556.584	1246.62
557.352	1188.62
558.121	1105.62
558.889	1054.62
559.657	985.62
560.425	935.62
561.193	878.62
561.961	826.62
562.729	776.62
563.496	741.62
564.264	703.62
565.032	663.62
565.799	620.62
566.567	591.62
567.334	554.62
568.101	531.62
568.869	499.62
569.636	472.62
570.403	448.62
571.17	413.62
571.937	388.62
572.704	368.62
573.471	359.62
574.237	332.62
575.004	312.62
575.771	286.62
576.537	277.62
577.303	255.62
578.07	240.62
578.836	224.62
579.602	214.62
580.368	202.62
581.134	189.62
581.9	185.62
582.666	175.62
583.432	167.62
584.198	159.62
584.964	148.62
585.729	140.62
586.495	134.62
587.26	125.62
588.025	117.62
588.791	115.62
589.556	106.62
590.321	102.62
591.086	95.62
591.851	89.62
592.616	87.62
593.381	84.62
594.146	75.62
594.911	73.62
595.675	69.62
596.44	67.62
597.204	65.62
597.969	63.62
598.733	58.62
599.497	58.62
600.261	54.62
601.025	50.62
601.79	52.62
602.553	46.62
603.317	48.62
604.081	41.62
604.845	41.62
605.609	40.62
606.372	36.62
607.136	36.62
607.899	36.62
608.662	34.62
609.426	35.62
610.189	30.62
610.952	29.62
611.715	28.62
612.478	27.62
613.241	26.62
614.004	22.62
614.767	28.62
615.529	23.62
616.292	24.62
617.055	22.62
617.817	22.62
618.579	21.62
619.342	21.62
620.104	18.62
620.866	17.62
621.628	15.62
622.39	19.62
623.152	16.62
623.914	17.62
624.676	16.62
625.438	12.62
626.199	14.62
626.961	12.62
627.722	13.62
628.484	13.62
629.245	15.62
630.006	10.62
630.768	10.62
631.529	12.62
632.29	12.62
633.051	9.62
633.812	11.62
634.573	7.62
635.333	11.62
636.094	10.62
636.855	8.62
637.615	9.62
638.376	10.62
639.136	10.62
639.896	9.62
640.657	8.62
641.417	8.62
642.177	7.62
642.937	7.62
643.697	8.62
644.457	9.62
645.216	7.62
645.976	7.62
646.736	6.62
647.495	5.62
648.255	4.62
649.014	3.62
649.774	5.62
650.533	6.62
651.292	7.62
652.051	8.62
652.81	7.62
653.569	6.62
654.328	5.62
655.087	4.62
655.846	7.62
656.604	8.62
657.363	5.62
658.121	4.62
658.88	4.62
659.638	4.62
660.397	6.62
661.155	4.62
661.913	3.62
662.671	4.62
663.429	4.62
664.187	4.62
664.945	4.62
665.703	3.62
666.46	5.62
667.218	3.62
667.976	4.62
668.733	2.62
669.49	4.62
670.248	5.62
671.005	6.62
671.762	4.62
672.519	3.62
673.276	4.62
674.033	4.62
674.79	2.62
675.547	2.62
676.304	2.62
677.06	4.62
677.817	5.62
678.574	3.62
679.33	2.62
680.086	1.62
680.843	4.62
681.599	5.62
682.355	4.62
683.111	2.62
683.867	4.62
684.623	2.62
685.379	2.62
686.135	5.62
686.89	4.62
687.646	4.62
688.402	1.62
689.157	1.62
689.912	3.62
690.668	4.62
691.423	6.62
692.178	1.62
692.933	1.62
693.688	4.62
694.443	2.62
695.198	2.62
695.953	4.62
696.708	3.62
697.462	0.62
698.217	2.62
698.972	3.62
699.726	5.62
700.48	3.62
701.235	1.62
701.989	2.62
702.743	5.62
703.497	3.62
704.251	2.62
705.005	2.62
705.759	4.62
706.513	3.62
707.266	3.62
708.02	4.62
708.774	3.62
709.527	4.62
710.28	1.62
711.034	3.62
711.787	5.62
712.54	2.62
713.293	2.62
714.046	2.62
714.799	2.62
715.552	1.62
716.305	3.62
717.058	5.62
717.81	2.62
718.563	2.62
719.315	5.62
720.068	3.62
720.82	4.62
721.573	1.62
722.325	3.62
723.077	4.62
723.829	2.62
724.581	3.62
725.333	2.62
726.085	3.62
726.836	2.62
727.588	4.62
728.34	2.62
729.091	2.62
729.843	5.62
730.594	4.62
731.346	3.62
732.097	3.62
732.848	4.62
733.599	2.62
734.35	4.62
735.101	5.62
735.852	5.62
736.603	2.62
737.354	2.62
738.104	1.62
738.855	4.62
739.605	2.62
740.356	3.62
741.106	3.62
741.856	3.62
742.607	2.62
743.357	0.62
744.107	5.62
744.857	2.62
745.607	6.62
746.357	5.62
747.106	5.62
747.856	4.62
748.606	4.62
749.355	4.62
750.105	3.62
750.854	4.62
751.603	5.62
752.353	3.62
753.102	6.62
753.851	5.62
754.6	6.62
755.349	4.62
756.098	3.62
756.847	6.62
757.595	5.62
758.344	6.62
759.093	6.62
759.841	5.62
760.589	6.62
761.338	7.62
762.086	7.62
762.834	5.62
763.582	6.62
764.331	7.62
765.079	5.62
765.826	7.62
766.574	6.62
767.322	6.62
768.07	6.62
768.817	6.62
769.565	5.62
770.312	7.62
771.06	8.62
771.807	8.62
772.554	6.62
773.302	7.62
774.049	7.62
774.796	9.62
775.543	8.62
776.29	9.62
777.036	11.62
777.783	8.62
778.53	8.62
779.276	8.62
780.023	9.62
780.769	6.62
781.516	10.62
782.262	9.62
783.008	7.62
783.754	9.62
784.5	6.62
785.246	10.62
785.992	8.62
786.738	8.62
787.484	8.62
788.23	10.62
788.975	9.62
789.721	10.62
790.466	8.62
791.212	8.62
791.957	8.62
792.702	10.62
793.447	5.62
794.193	8.62
794.938	8.62
795.683	6.62
796.427	8.62
797.172	6.62
797.917	6.62
798.662	6.62
799.406	6.62
800.151	8.62
800.895	8.62
801.64	9.62
802.384	8.62
803.128	6.62
803.872	7.62
804.616	4.62
805.36	5.62
806.104	6.62
806.848	7.62
807.592	6.62
808.336	5.62
809.079	5.62
809.823	6.62
810.566	6.62
811.31	7.62
812.053	6.62
812.796	4.62
813.539	3.62
814.283	5.62
815.026	4.62
815.769	5.62
816.511	4.62
817.254	5.62
817.997	2.62
818.74	2.62
819.482	4.62
820.225	4.62
820.967	4.62
821.71	3.62
822.452	2.62
823.194	2.62
823.936	5.62
824.678	4.62
825.42	5.62
826.162	1.62
826.904	4.62
827.646	2.62
828.388	3.62
829.129	4.62
829.871	4.62
830.612	1.62
831.354	2.62
832.095	1.62
832.836	2.62
833.577	5.62
834.319	3.62
835.06	1.62
835.801	2.62
836.542	0.62
837.282	6.62
838.023	2.62
838.764	3.62
839.504	3.62
840.245	3.62
840.985	4.62
841.726	2.62
842.466	4.62
843.206	2.62
843.946	3.62
844.687	3.62
845.427	1.62
846.166	1.62
846.906	1.62
847.646	2.62
848.386	1.62
849.125	1.62
849.865	1.62
850.605	0.62
851.344	4.62
852.083	2.62
852.823	-0.38
853.562	3.62
854.301	2.62
855.04	3.62
855.779	-0.38
856.518	2.62
857.257	2.62
857.995	0.62
858.734	1.62
859.473	3.62
860.211	0.62
860.95	1.62
861.688	2.62
862.426	1.62
863.165	2.62
863.903	2.62
864.641	-0.38
865.379	2.62
866.117	2.62
866.855	0.62
867.593	-1.38
868.33	-0.38
869.068	3.62
869.806	2.62
870.543	-1.38
871.28	0.62
872.018	3.62
872.755	2.62
873.492	-1.38
874.229	2.62
874.967	-0.38
875.703	2.62
876.44	2.62
877.177	0.62
877.914	2.62
878.651	1.62
879.387	-0.38
880.124	0.62
880.86	-0.38
881.597	0.62
882.333	0.62
883.069	0.62
883.806	-0.38
884.542	1.62
885.278	4.62
886.014	-1.38
886.749	0.62
887.485	0.62
888.221	-1.38
888.957	0.62
889.692	3.62
890.428	0.62
891.163	0.62
891.899	2.62
892.634	-0.38
893.369	0.62
894.104	2.62
894.839	0.62
895.574	0.62
896.309	2.62
897.044	-1.38
897.779	1.62
898.514	-1.38
899.248	0.62
899.983	0.62
900.717	0.62
901.452	-0.38
902.186	0.62
902.92	-0.38
903.654	1.62
904.389	1.62
905.123	2.62
905.857	-1.38
906.59	0.62
907.324	3.62
908.058	0.62
908.792	-1.38
909.525	-1.38
910.259	-0.38
910.992	1.62
911.726	0.62
912.459	0.62
913.192	-1.38
913.925	-0.38
914.658	-0.38
915.391	1.62
916.124	-1.38
916.857	0.62
917.59	0.62
918.323	-2.38
919.055	-1.38
919.788	0.62
920.521	2.62
921.253	-1.38
921.985	0.62
922.718	-0.38
923.45	1.62
924.182	-1.38
924.914	-0.38
925.646	3.62
926.378	-0.38
927.11	-1.38
927.841	-0.38
928.573	0.62
929.305	0.62
930.036	-1.38
930.768	0.62
931.499	-0.38
932.23	1.62
932.962	-0.38
933.693	-2.38
934.424	0.62
935.155	3.62
935.886	1.62
936.617	-0.38
937.348	-0.38
938.078	1.62
938.809	0.62
939.54	-0.38
940.27	0.62
941.001	0.62
941.731	2.62
942.461	-0.38
943.191	1.62
943.922	-0.38
944.652	-0.38
945.382	0.62
946.112	0.62
946.841	0.62
947.571	0.62
948.301	-1.38
949.031	1.62
949.76	-0.38
950.49	0.62
951.219	0.62
951.948	-0.38
952.678	0.62
953.407	0.62
954.136	0.62
954.865	0.62
955.594	0.62
956.323	0.62
957.052	-1.38
957.78	0.62
958.509	0.62
959.238	-0.38
959.966	-0.38
960.695	0.62
961.423	-2.38
962.151	0.62
962.88	-1.38
963.608	-3.38
964.336	-1.38
965.064	-0.38
965.792	-0.38
966.52	-0.38
967.247	-0.38
967.975	0.62
968.703	-0.38
969.43	1.62
970.158	-1.38
970.885	-1.38
971.613	0.62
972.34	-3.38
973.067	0.62
973.794	-1.38
974.521	-3.38
975.248	0.62
975.975	-1.38
976.702	3.62
977.429	-1.38
978.156	0.62
978.882	1.62
979.609	-2.38
980.335	0.62
981.062	-0.38
981.788	2.62
982.514	-0.38
983.24	-0.38
983.967	-1.38
984.693	-0.38
985.419	1.62
986.144	0.62
986.87	0.62
987.596	0.62
988.322	0.62
989.047	0.62
989.773	-1.38
990.498	-1.38
991.224	1.62
991.949	-0.38
992.674	1.62
993.399	-1.38
994.124	-2.38
994.849	0.62
995.574	-1.38
996.299	-1.38
997.024	2.62
997.749	0.62
998.473	-0.38
999.198	1.62
999.922	-1.38
1000.647	-1.38
1001.371	2.62
1002.095	-0.38
1002.82	-2.38
1003.544	0.62
1004.268	0.62
1004.992	0.62
1005.716	-0.38
1006.439	0.62
1007.163	-0.38
1007.887	-0.38
1008.611	0.62
1009.334	-1.38
1010.058	1.62
1010.781	-0.38
1011.504	1.62
1012.228	1.62
1012.951	-0.38
1013.674	-0.38
1014.397	-0.38
1015.12	0.62
