节点500_285_QEPB04081__673__15-06-44-971.txt的数据

Date: Wed Nov 12 15:06:44 CST 2025
User: PC
Spectrometer: QEPB0408
触发模式: 0
积分时间 (秒): 1.000000E-2
Scans to average: 1
启用暗噪声校正: true
启用非线性校正: false
滑动平均宽度: 0
X轴模式: Wavelengths
Number of Pixels in Spectrum: 1044
>>>>>Begin Spectral Data<<<<<
220.843	0.62
221.644	1.62
222.444	0.62
223.244	0.62
224.045	3.62
224.845	2.62
225.645	2.62
226.445	1.62
227.245	1.62
228.045	1.62
228.845	1.62
229.645	3.62
230.444	1.62
231.244	2.62
232.043	1.62
232.843	2.62
233.642	2.62
234.442	3.62
235.241	5.62
236.04	3.62
236.839	2.62
237.638	4.62
238.437	3.62
239.236	5.62
240.035	4.62
240.833	3.62
241.632	3.62
242.43	3.62
243.229	2.62
244.027	2.62
244.826	3.62
245.624	4.62
246.422	3.62
247.22	4.62
248.018	5.62
248.816	4.62
249.614	3.62
250.412	4.62
251.21	3.62
252.007	6.62
252.805	3.62
253.602	6.62
254.4	8.62
255.197	4.62
255.994	7.62
256.791	5.62
257.589	5.62
258.386	6.62
259.183	9.62
259.979	9.62
260.776	8.62
261.573	7.62
262.37	10.62
263.166	9.62
263.963	10.62
264.759	10.62
265.556	9.62
266.352	9.62
267.148	10.62
267.944	11.62
268.74	11.62
269.536	10.62
270.332	11.62
271.128	13.62
271.924	15.62
272.719	14.62
273.515	13.62
274.311	13.62
275.106	14.62
275.901	12.62
276.697	15.62
277.492	17.62
278.287	16.62
279.082	16.62
279.877	16.62
280.672	17.62
281.467	17.62
282.262	18.62
283.056	17.62
283.851	16.62
284.646	15.62
285.44	16.62
286.234	17.62
287.029	14.62
287.823	16.62
288.617	16.62
289.411	18.62
290.205	17.62
290.999	15.62
291.793	18.62
292.587	13.62
293.381	17.62
294.174	16.62
294.968	13.62
295.761	14.62
296.555	17.62
297.348	15.62
298.141	12.62
298.935	16.62
299.728	13.62
300.521	13.62
301.314	15.62
302.107	9.62
302.899	12.62
303.692	12.62
304.485	10.62
305.277	12.62
306.07	12.62
306.862	11.62
307.655	14.62
308.447	12.62
309.239	12.62
310.031	11.62
310.823	10.62
311.615	6.62
312.407	10.62
313.199	9.62
313.991	10.62
314.783	10.62
315.574	8.62
316.366	9.62
317.157	5.62
317.949	8.62
318.74	6.62
319.531	7.62
320.322	7.62
321.113	8.62
321.904	8.62
322.695	6.62
323.486	6.62
324.277	6.62
325.068	4.62
325.858	6.62
326.649	6.62
327.439	6.62
328.23	6.62
329.02	3.62
329.81	8.62
330.6	4.62
331.391	9.62
332.181	6.62
332.971	4.62
333.76	4.62
334.55	4.62
335.34	7.62
336.13	5.62
336.919	7.62
337.709	5.62
338.498	3.62
339.287	6.62
340.077	4.62
340.866	7.62
341.655	6.62
342.444	5.62
343.233	3.62
344.022	5.62
344.811	7.62
345.6	6.62
346.388	6.62
347.177	5.62
347.965	6.62
348.754	5.62
349.542	6.62
350.33	3.62
351.119	3.62
351.907	5.62
352.695	4.62
353.483	4.62
354.271	5.62
355.059	3.62
355.846	6.62
356.634	5.62
357.422	4.62
358.209	5.62
358.997	4.62
359.784	5.62
360.571	4.62
361.359	3.62
362.146	1.62
362.933	4.62
363.72	1.62
364.507	4.62
365.294	3.62
366.081	4.62
366.867	3.62
367.654	6.62
368.44	5.62
369.227	4.62
370.013	3.62
370.8	4.62
371.586	1.62
372.372	6.62
373.158	2.62
373.944	3.62
374.73	6.62
375.516	3.62
376.302	6.62
377.088	4.62
377.873	4.62
378.659	4.62
379.445	2.62
380.23	4.62
381.015	4.62
381.801	4.62
382.586	5.62
383.371	4.62
384.156	4.62
384.941	4.62
385.726	4.62
386.511	3.62
387.296	4.62
388.08	4.62
388.865	6.62
389.649	7.62
390.434	3.62
391.218	6.62
392.003	5.62
392.787	3.62
393.571	5.62
394.355	5.62
395.139	5.62
395.923	6.62
396.707	5.62
397.491	4.62
398.274	4.62
399.058	5.62
399.842	7.62
400.625	6.62
401.408	4.62
402.192	8.62
402.975	5.62
403.758	7.62
404.541	6.62
405.324	8.62
406.107	7.62
406.89	7.62
407.673	7.62
408.456	6.62
409.238	8.62
410.021	6.62
410.803	7.62
411.586	8.62
412.368	7.62
413.151	7.62
413.933	5.62
414.715	6.62
415.497	9.62
416.279	5.62
417.061	8.62
417.843	8.62
418.624	8.62
419.406	11.62
420.188	10.62
420.969	10.62
421.751	9.62
422.532	11.62
423.313	12.62
424.095	11.62
424.876	9.62
425.657	11.62
426.438	9.62
427.219	9.62
428	13.62
428.78	12.62
429.561	15.62
430.342	13.62
431.122	13.62
431.903	12.62
432.683	11.62
433.464	14.62
434.244	14.62
435.024	15.62
435.804	15.62
436.584	16.62
437.364	18.62
438.144	20.62
438.924	18.62
439.704	22.62
440.483	20.62
441.263	22.62
442.042	22.62
442.822	25.62
443.601	29.62
444.38	28.62
445.16	34.62
445.939	37.62
446.718	41.62
447.497	37.62
448.276	41.62
449.054	45.62
449.833	53.62
450.612	54.62
451.391	60.62
452.169	68.62
452.948	80.62
453.726	83.62
454.504	85.62
455.282	96.62
456.061	104.62
456.839	117.62
457.617	133.62
458.395	146.62
459.172	165.62
459.95	182.62
460.728	201.62
461.506	223.62
462.283	251.62
463.061	282.62
463.838	315.62
464.615	345.62
465.393	387.62
466.17	430.62
466.947	479.62
467.724	536.62
468.501	596.62
469.278	656.62
470.055	725.62
470.831	818.62
471.608	898.62
472.385	989.62
473.161	1095.62
473.938	1205.62
474.714	1309.62
475.49	1452.62
476.266	1612.62
477.043	1775.62
477.819	1942.62
478.595	2158.62
479.371	2318.62
480.146	2561.62
480.922	2814.62
481.698	3075.62
482.473	3373.62
483.249	3710.62
484.024	4038.62
484.8	4429.62
485.575	4831.62
486.35	5278.62
487.126	5707.62
487.901	6256.62
488.676	6806.62
489.451	7447.62
490.225	8069.62
491	8787.62
491.775	9531.62
492.55	10381.62
493.324	11221.62
494.099	12054.62
494.873	12904.62
495.647	13933.62
496.422	14894.62
497.196	15939.62
497.97	17015.62
498.744	18092.62
499.518	19126.62
500.292	20223.62
501.066	21215.62
501.839	22181.62
502.613	23078.62
503.387	23965.62
504.16	24651.62
504.934	25049.62
505.707	25460.62
506.48	25633.62
507.253	25663.62
508.027	25712.62
508.8	25605.62
509.573	25445.62
510.346	24978.62
511.118	24300.62
511.891	23716.62
512.664	23091.62
513.437	22351.62
514.209	21546.62
514.982	20804.62
515.754	19925.62
516.526	19110.62
517.298	18286.62
518.071	17592.62
518.843	16918.62
519.615	16231.62
520.387	15596.62
521.159	14988.62
521.93	14367.62
522.702	13829.62
523.474	13276.62
524.245	12709.62
525.017	12155.62
525.788	11662.62
526.56	11188.62
527.331	10712.62
528.102	10248.62
528.873	9783.62
529.644	9302.62
530.415	8900.62
531.186	8440.62
531.957	8029.62
532.728	7645.62
533.498	7285.62
534.269	6885.62
535.039	6478.62
535.81	6179.62
536.58	5832.62
537.351	5505.62
538.121	5211.62
538.891	4895.62
539.661	4660.62
540.431	4407.62
541.201	4139.62
541.971	3918.62
542.741	3741.62
543.51	3528.62
544.28	3391.62
545.05	3208.62
545.819	3056.62
546.588	2890.62
547.358	2756.62
548.127	2626.62
548.896	2494.62
549.665	2368.62
550.434	2240.62
551.203	2096.62
551.972	2013.62
552.741	1902.62
553.51	1786.62
554.278	1701.62
555.047	1618.62
555.815	1517.62
556.584	1450.62
557.352	1379.62
558.121	1277.62
558.889	1206.62
559.657	1136.62
560.425	1086.62
561.193	1020.62
561.961	959.62
562.729	926.62
563.496	864.62
564.264	818.62
565.032	768.62
565.799	726.62
566.567	691.62
567.334	654.62
568.101	609.62
568.869	580.62
569.636	540.62
570.403	515.62
571.17	479.62
571.937	452.62
572.704	435.62
573.471	406.62
574.237	383.62
575.004	372.62
575.771	341.62
576.537	319.62
577.303	299.62
578.07	286.62
578.836	275.62
579.602	257.62
580.368	237.62
581.134	228.62
581.9	224.62
582.666	202.62
583.432	194.62
584.198	181.62
584.964	176.62
585.729	173.62
586.495	158.62
587.26	147.62
588.025	137.62
588.791	131.62
589.556	127.62
590.321	120.62
591.086	109.62
591.851	112.62
592.616	104.62
593.381	97.62
594.146	90.62
594.911	90.62
595.675	84.62
596.44	78.62
597.204	75.62
597.969	70.62
598.733	66.62
599.497	67.62
600.261	62.62
601.025	58.62
601.79	56.62
602.553	53.62
603.317	52.62
604.081	53.62
604.845	48.62
605.609	48.62
606.372	45.62
607.136	41.62
607.899	39.62
608.662	40.62
609.426	40.62
610.189	32.62
610.952	35.62
611.715	34.62
612.478	32.62
613.241	32.62
614.004	26.62
614.767	25.62
615.529	27.62
616.292	27.62
617.055	25.62
617.817	25.62
618.579	24.62
619.342	21.62
620.104	21.62
620.866	19.62
621.628	18.62
622.39	20.62
623.152	19.62
623.914	21.62
624.676	15.62
625.438	20.62
626.199	20.62
626.961	16.62
627.722	14.62
628.484	15.62
629.245	11.62
630.006	15.62
630.768	12.62
631.529	12.62
632.29	15.62
633.051	12.62
633.812	13.62
634.573	12.62
635.333	9.62
636.094	9.62
636.855	13.62
637.615	10.62
638.376	12.62
639.136	11.62
639.896	8.62
640.657	8.62
641.417	7.62
642.177	10.62
642.937	8.62
643.697	9.62
644.457	9.62
645.216	8.62
645.976	7.62
646.736	8.62
647.495	7.62
648.255	8.62
649.014	6.62
649.774	5.62
650.533	9.62
651.292	8.62
652.051	6.62
652.81	7.62
653.569	5.62
654.328	4.62
655.087	3.62
655.846	5.62
656.604	7.62
657.363	4.62
658.121	5.62
658.88	7.62
659.638	6.62
660.397	4.62
661.155	6.62
661.913	4.62
662.671	4.62
663.429	7.62
664.187	6.62
664.945	3.62
665.703	3.62
666.46	3.62
667.218	3.62
667.976	4.62
668.733	7.62
669.49	3.62
670.248	4.62
671.005	5.62
671.762	2.62
672.519	4.62
673.276	2.62
674.033	3.62
674.79	2.62
675.547	3.62
676.304	3.62
677.06	4.62
677.817	2.62
678.574	1.62
679.33	2.62
680.086	4.62
680.843	2.62
681.599	1.62
682.355	1.62
683.111	4.62
683.867	3.62
684.623	1.62
685.379	2.62
686.135	3.62
686.89	2.62
687.646	3.62
688.402	3.62
689.157	5.62
689.912	2.62
690.668	1.62
691.423	3.62
692.178	5.62
692.933	2.62
693.688	3.62
694.443	3.62
695.198	4.62
695.953	2.62
696.708	1.62
697.462	5.62
698.217	1.62
698.972	2.62
699.726	0.62
700.48	2.62
701.235	3.62
701.989	2.62
702.743	2.62
703.497	2.62
704.251	0.62
705.005	2.62
705.759	3.62
706.513	3.62
707.266	4.62
708.02	5.62
708.774	1.62
709.527	1.62
710.28	3.62
711.034	1.62
711.787	3.62
712.54	4.62
713.293	3.62
714.046	3.62
714.799	4.62
715.552	5.62
716.305	0.62
717.058	2.62
717.81	5.62
718.563	3.62
719.315	1.62
720.068	1.62
720.82	3.62
721.573	2.62
722.325	4.62
723.077	3.62
723.829	3.62
724.581	2.62
725.333	4.62
726.085	2.62
726.836	2.62
727.588	3.62
728.34	1.62
729.091	4.62
729.843	4.62
730.594	2.62
731.346	2.62
732.097	5.62
732.848	4.62
733.599	1.62
734.35	3.62
735.101	1.62
735.852	3.62
736.603	5.62
737.354	3.62
738.104	4.62
738.855	2.62
739.605	2.62
740.356	5.62
741.106	1.62
741.856	4.62
742.607	4.62
743.357	3.62
744.107	4.62
744.857	2.62
745.607	3.62
746.357	4.62
747.106	1.62
747.856	5.62
748.606	4.62
749.355	4.62
750.105	2.62
750.854	6.62
751.603	2.62
752.353	4.62
753.102	2.62
753.851	4.62
754.6	5.62
755.349	5.62
756.098	4.62
756.847	4.62
757.595	7.62
758.344	4.62
759.093	4.62
759.841	4.62
760.589	5.62
761.338	2.62
762.086	6.62
762.834	7.62
763.582	4.62
764.331	7.62
765.079	5.62
765.826	6.62
766.574	5.62
767.322	7.62
768.07	5.62
768.817	4.62
769.565	9.62
770.312	6.62
771.06	5.62
771.807	7.62
772.554	6.62
773.302	7.62
774.049	8.62
774.796	5.62
775.543	6.62
776.29	7.62
777.036	6.62
777.783	6.62
778.53	4.62
779.276	7.62
780.023	5.62
780.769	10.62
781.516	8.62
782.262	7.62
783.008	5.62
783.754	8.62
784.5	7.62
785.246	6.62
785.992	7.62
786.738	6.62
787.484	6.62
788.23	7.62
788.975	5.62
789.721	5.62
790.466	6.62
791.212	7.62
791.957	6.62
792.702	6.62
793.447	6.62
794.193	7.62
794.938	8.62
795.683	7.62
796.427	10.62
797.172	5.62
797.917	5.62
798.662	8.62
799.406	5.62
800.151	8.62
800.895	6.62
801.64	5.62
802.384	4.62
803.128	6.62
803.872	6.62
804.616	6.62
805.36	7.62
806.104	4.62
806.848	3.62
807.592	6.62
808.336	5.62
809.079	4.62
809.823	5.62
810.566	7.62
811.31	2.62
812.053	5.62
812.796	5.62
813.539	6.62
814.283	5.62
815.026	3.62
815.769	4.62
816.511	3.62
817.254	4.62
817.997	5.62
818.74	3.62
819.482	3.62
820.225	4.62
820.967	5.62
821.71	4.62
822.452	2.62
823.194	3.62
823.936	4.62
824.678	3.62
825.42	5.62
826.162	3.62
826.904	5.62
827.646	4.62
828.388	4.62
829.129	3.62
829.871	3.62
830.612	2.62
831.354	3.62
832.095	1.62
832.836	2.62
833.577	1.62
834.319	3.62
835.06	1.62
835.801	4.62
836.542	2.62
837.282	2.62
838.023	2.62
838.764	3.62
839.504	2.62
840.245	4.62
840.985	1.62
841.726	0.62
842.466	2.62
843.206	0.62
843.946	3.62
844.687	1.62
845.427	1.62
846.166	0.62
846.906	2.62
847.646	3.62
848.386	2.62
849.125	3.62
849.865	1.62
850.605	1.62
851.344	6.62
852.083	2.62
852.823	3.62
853.562	1.62
854.301	2.62
855.04	1.62
855.779	1.62
856.518	0.62
857.257	3.62
857.995	4.62
858.734	3.62
859.473	1.62
860.211	4.62
860.95	1.62
861.688	2.62
862.426	-0.38
863.165	0.62
863.903	2.62
864.641	4.62
865.379	0.62
866.117	0.62
866.855	1.62
867.593	2.62
868.33	1.62
869.068	2.62
869.806	0.62
870.543	1.62
871.28	1.62
872.018	1.62
872.755	1.62
873.492	-0.38
874.229	-0.38
874.967	-0.38
875.703	1.62
876.44	-0.38
877.177	1.62
877.914	-0.38
878.651	-2.38
879.387	1.62
880.124	1.62
880.86	0.62
881.597	-0.38
882.333	1.62
883.069	3.62
883.806	1.62
884.542	1.62
885.278	-0.38
886.014	1.62
886.749	0.62
887.485	1.62
888.221	1.62
888.957	1.62
889.692	-0.38
890.428	1.62
891.163	-0.38
891.899	-0.38
892.634	2.62
893.369	1.62
894.104	-1.38
894.839	1.62
895.574	1.62
896.309	-0.38
897.044	-1.38
897.779	-0.38
898.514	0.62
899.248	-1.38
899.983	-0.38
900.717	-0.38
901.452	-1.38
902.186	0.62
902.92	-1.38
903.654	-0.38
904.389	0.62
905.123	1.62
905.857	0.62
906.59	1.62
907.324	-0.38
908.058	-2.38
908.792	1.62
909.525	1.62
910.259	-0.38
910.992	2.62
911.726	0.62
912.459	0.62
913.192	-0.38
913.925	-1.38
914.658	0.62
915.391	2.62
916.124	1.62
916.857	0.62
917.59	1.62
918.323	-0.38
919.055	1.62
919.788	0.62
920.521	-0.38
921.253	0.62
921.985	0.62
922.718	0.62
923.45	-0.38
924.182	0.62
924.914	-1.38
925.646	-1.38
926.378	-2.38
927.11	0.62
927.841	0.62
928.573	-1.38
929.305	0.62
930.036	-1.38
930.768	0.62
931.499	-0.38
932.23	0.62
932.962	-0.38
933.693	-0.38
934.424	1.62
935.155	-2.38
935.886	-0.38
936.617	-0.38
937.348	-2.38
938.078	-0.38
938.809	-0.38
939.54	1.62
940.27	-0.38
941.001	-0.38
941.731	-2.38
942.461	1.62
943.191	3.62
943.922	-0.38
944.652	0.62
945.382	-2.38
946.112	0.62
946.841	-0.38
947.571	-2.38
948.301	-0.38
949.031	-3.38
949.76	-0.38
950.49	-0.38
951.219	-0.38
951.948	0.62
952.678	-2.38
953.407	-1.38
954.136	-2.38
954.865	-0.38
955.594	0.62
956.323	-0.38
957.052	0.62
957.78	-0.38
958.509	-1.38
959.238	-2.38
959.966	-0.38
960.695	0.62
961.423	-0.38
962.151	-0.38
962.88	-0.38
963.608	0.62
964.336	-0.38
965.064	-1.38
965.792	-2.38
966.52	-0.38
967.247	0.62
967.975	1.62
968.703	0.62
969.43	1.62
970.158	-1.38
970.885	-2.38
971.613	-2.38
972.34	1.62
973.067	-0.38
973.794	0.62
974.521	-0.38
975.248	-1.38
975.975	-1.38
976.702	0.62
977.429	-1.38
978.156	0.62
978.882	-0.38
979.609	-1.38
980.335	-0.38
981.062	-1.38
981.788	1.62
982.514	-0.38
983.24	0.62
983.967	-1.38
984.693	1.62
985.419	-1.38
986.144	0.62
986.87	1.62
987.596	1.62
988.322	-0.38
989.047	-1.38
989.773	1.62
990.498	-2.38
991.224	1.62
991.949	1.62
992.674	-2.38
993.399	-2.38
994.124	-2.38
994.849	-0.38
995.574	1.62
996.299	-1.38
997.024	-0.38
997.749	-0.38
998.473	0.62
999.198	-0.38
999.922	2.62
1000.647	-0.38
1001.371	4.62
1002.095	-3.38
1002.82	0.62
1003.544	-1.38
1004.268	1.62
1004.992	0.62
1005.716	-0.38
1006.439	2.62
1007.163	0.62
1007.887	0.62
1008.611	-0.38
1009.334	-0.38
1010.058	-0.38
1010.781	0.62
1011.504	0.62
1012.228	1.62
1012.951	-1.38
1013.674	0.62
1014.397	-0.38
1015.12	0.62
