节点500_285_QEPB04081__203__14-58-56-084.txt的数据

Date: Wed Nov 12 14:58:56 CST 2025
User: PC
Spectrometer: QEPB0408
触发模式: 0
积分时间 (秒): 1.000000E-2
Scans to average: 1
启用暗噪声校正: true
启用非线性校正: false
滑动平均宽度: 0
X轴模式: Wavelengths
Number of Pixels in Spectrum: 1044
>>>>>Begin Spectral Data<<<<<
220.843	1.5
221.644	0.5
222.444	2.5
223.244	0.5
224.045	4.5
224.845	0.5
225.645	3.5
226.445	0.5
227.245	3.5
228.045	3.5
228.845	2.5
229.645	3.5
230.444	2.5
231.244	3.5
232.043	5.5
232.843	3.5
233.642	3.5
234.442	3.5
235.241	1.5
236.04	1.5
236.839	5.5
237.638	5.5
238.437	5.5
239.236	3.5
240.035	4.5
240.833	6.5
241.632	3.5
242.43	4.5
243.229	5.5
244.027	4.5
244.826	5.5
245.624	2.5
246.422	7.5
247.22	3.5
248.018	5.5
248.816	4.5
249.614	6.5
250.412	7.5
251.21	6.5
252.007	7.5
252.805	7.5
253.602	5.5
254.4	7.5
255.197	7.5
255.994	7.5
256.791	9.5
257.589	9.5
258.386	8.5
259.183	8.5
259.979	11.5
260.776	8.5
261.573	10.5
262.37	12.5
263.166	15.5
263.963	11.5
264.759	13.5
265.556	13.5
266.352	10.5
267.148	16.5
267.944	13.5
268.74	13.5
269.536	15.5
270.332	13.5
271.128	15.5
271.924	12.5
272.719	16.5
273.515	15.5
274.311	15.5
275.106	20.5
275.901	14.5
276.697	20.5
277.492	17.5
278.287	16.5
279.082	17.5
279.877	18.5
280.672	17.5
281.467	18.5
282.262	20.5
283.056	20.5
283.851	16.5
284.646	20.5
285.44	19.5
286.234	20.5
287.029	17.5
287.823	19.5
288.617	19.5
289.411	19.5
290.205	18.5
290.999	21.5
291.793	17.5
292.587	19.5
293.381	15.5
294.174	18.5
294.968	17.5
295.761	17.5
296.555	15.5
297.348	15.5
298.141	17.5
298.935	16.5
299.728	13.5
300.521	12.5
301.314	13.5
302.107	13.5
302.899	12.5
303.692	12.5
304.485	14.5
305.277	14.5
306.07	11.5
306.862	13.5
307.655	11.5
308.447	13.5
309.239	11.5
310.031	10.5
310.823	11.5
311.615	8.5
312.407	11.5
313.199	10.5
313.991	7.5
314.783	11.5
315.574	7.5
316.366	11.5
317.157	7.5
317.949	7.5
318.74	10.5
319.531	7.5
320.322	8.5
321.113	8.5
321.904	7.5
322.695	8.5
323.486	7.5
324.277	6.5
325.068	8.5
325.858	8.5
326.649	6.5
327.439	6.5
328.23	6.5
329.02	4.5
329.81	7.5
330.6	4.5
331.391	8.5
332.181	5.5
332.971	4.5
333.76	8.5
334.55	5.5
335.34	5.5
336.13	7.5
336.919	4.5
337.709	8.5
338.498	6.5
339.287	5.5
340.077	6.5
340.866	7.5
341.655	6.5
342.444	5.5
343.233	8.5
344.022	4.5
344.811	6.5
345.6	5.5
346.388	7.5
347.177	5.5
347.965	3.5
348.754	5.5
349.542	5.5
350.33	5.5
351.119	5.5
351.907	5.5
352.695	6.5
353.483	4.5
354.271	6.5
355.059	6.5
355.846	4.5
356.634	5.5
357.422	4.5
358.209	2.5
358.997	6.5
359.784	5.5
360.571	5.5
361.359	5.5
362.146	5.5
362.933	6.5
363.72	6.5
364.507	4.5
365.294	5.5
366.081	5.5
366.867	5.5
367.654	3.5
368.44	5.5
369.227	5.5
370.013	4.5
370.8	4.5
371.586	5.5
372.372	6.5
373.158	4.5
373.944	6.5
374.73	5.5
375.516	6.5
376.302	6.5
377.088	4.5
377.873	5.5
378.659	6.5
379.445	3.5
380.23	6.5
381.015	8.5
381.801	5.5
382.586	5.5
383.371	4.5
384.156	5.5
384.941	7.5
385.726	4.5
386.511	5.5
387.296	5.5
388.08	5.5
388.865	6.5
389.649	6.5
390.434	5.5
391.218	4.5
392.003	8.5
392.787	5.5
393.571	9.5
394.355	4.5
395.139	7.5
395.923	7.5
396.707	4.5
397.491	8.5
398.274	4.5
399.058	6.5
399.842	7.5
400.625	6.5
401.408	6.5
402.192	7.5
402.975	3.5
403.758	7.5
404.541	6.5
405.324	7.5
406.107	7.5
406.89	9.5
407.673	8.5
408.456	7.5
409.238	7.5
410.021	7.5
410.803	10.5
411.586	9.5
412.368	8.5
413.151	9.5
413.933	9.5
414.715	9.5
415.497	9.5
416.279	9.5
417.061	8.5
417.843	11.5
418.624	11.5
419.406	8.5
420.188	10.5
420.969	9.5
421.751	9.5
422.532	9.5
423.313	11.5
424.095	12.5
424.876	11.5
425.657	13.5
426.438	13.5
427.219	15.5
428	13.5
428.78	10.5
429.561	13.5
430.342	14.5
431.122	15.5
431.903	15.5
432.683	16.5
433.464	17.5
434.244	17.5
435.024	18.5
435.804	18.5
436.584	17.5
437.364	20.5
438.144	18.5
438.924	20.5
439.704	23.5
440.483	21.5
441.263	23.5
442.042	26.5
442.822	28.5
443.601	26.5
444.38	29.5
445.16	30.5
445.939	30.5
446.718	34.5
447.497	36.5
448.276	40.5
449.054	44.5
449.833	49.5
450.612	49.5
451.391	55.5
452.169	61.5
452.948	66.5
453.726	74.5
454.504	75.5
455.282	86.5
456.061	95.5
456.839	104.5
457.617	118.5
458.395	129.5
459.172	147.5
459.95	159.5
460.728	182.5
461.506	204.5
462.283	221.5
463.061	245.5
463.838	280.5
464.615	310.5
465.393	350.5
466.17	391.5
466.947	429.5
467.724	484.5
468.501	547.5
469.278	596.5
470.055	671.5
470.831	748.5
471.608	836.5
472.385	923.5
473.161	1036.5
473.938	1142.5
474.714	1274.5
475.49	1412.5
476.266	1550.5
477.043	1732.5
477.819	1914.5
478.595	2140.5
479.371	2347.5
480.146	2598.5
480.922	2877.5
481.698	3165.5
482.473	3461.5
483.249	3876.5
484.024	4273.5
484.8	4701.5
485.575	5148.5
486.35	5695.5
487.126	6232.5
487.901	6855.5
488.676	7541.5
489.451	8255.5
490.225	9055.5
491	9956.5
491.775	10896.5
492.55	11871.5
493.324	12891.5
494.099	13892.5
494.873	14982.5
495.647	16172.5
496.422	17406.5
497.196	18624.5
497.97	19861.5
498.744	21133.5
499.518	22308.5
500.292	23419.5
501.066	24480.5
501.839	25442.5
502.613	26413.5
503.387	27083.5
504.16	27692.5
504.934	27917.5
505.707	28073.5
506.48	28090.5
507.253	27857.5
508.027	27578.5
508.8	27213.5
509.573	26646.5
510.346	25993.5
511.118	25096.5
511.891	24232.5
512.664	23392.5
513.437	22497.5
514.209	21439.5
514.982	20599.5
515.754	19619.5
516.526	18725.5
517.298	17946.5
518.071	17091.5
518.843	16451.5
519.615	15900.5
520.387	15201.5
521.159	14593.5
521.93	14007.5
522.702	13486.5
523.474	12953.5
524.245	12316.5
525.017	11824.5
525.788	11364.5
526.56	10857.5
527.331	10317.5
528.102	9866.5
528.873	9368.5
529.644	8905.5
530.415	8499.5
531.186	8018.5
531.957	7595.5
532.728	7223.5
533.498	6856.5
534.269	6450.5
535.039	6084.5
535.81	5731.5
536.58	5446.5
537.351	5110.5
538.121	4862.5
538.891	4592.5
539.661	4309.5
540.431	4061.5
541.201	3864.5
541.971	3654.5
542.741	3463.5
543.51	3282.5
544.28	3133.5
545.05	2991.5
545.819	2846.5
546.588	2685.5
547.358	2555.5
548.127	2420.5
548.896	2328.5
549.665	2178.5
550.434	2094.5
551.203	1968.5
551.972	1854.5
552.741	1750.5
553.51	1653.5
554.278	1550.5
555.047	1476.5
555.815	1385.5
556.584	1309.5
557.352	1249.5
558.121	1158.5
558.889	1098.5
559.657	1051.5
560.425	976.5
561.193	930.5
561.961	873.5
562.729	821.5
563.496	783.5
564.264	733.5
565.032	700.5
565.799	661.5
566.567	634.5
567.334	596.5
568.101	555.5
568.869	529.5
569.636	490.5
570.403	474.5
571.17	443.5
571.937	424.5
572.704	395.5
573.471	368.5
574.237	343.5
575.004	322.5
575.771	315.5
576.537	291.5
577.303	279.5
578.07	256.5
578.836	242.5
579.602	228.5
580.368	216.5
581.134	210.5
581.9	195.5
582.666	181.5
583.432	171.5
584.198	165.5
584.964	157.5
585.729	153.5
586.495	146.5
587.26	134.5
588.025	125.5
588.791	121.5
589.556	114.5
590.321	111.5
591.086	103.5
591.851	100.5
592.616	88.5
593.381	84.5
594.146	83.5
594.911	82.5
595.675	78.5
596.44	75.5
597.204	69.5
597.969	66.5
598.733	61.5
599.497	61.5
600.261	58.5
601.025	54.5
601.79	50.5
602.553	50.5
603.317	49.5
604.081	47.5
604.845	42.5
605.609	44.5
606.372	40.5
607.136	39.5
607.899	38.5
608.662	37.5
609.426	35.5
610.189	34.5
610.952	32.5
611.715	28.5
612.478	32.5
613.241	31.5
614.004	31.5
614.767	27.5
615.529	23.5
616.292	23.5
617.055	21.5
617.817	24.5
618.579	21.5
619.342	21.5
620.104	17.5
620.866	21.5
621.628	18.5
622.39	18.5
623.152	20.5
623.914	19.5
624.676	18.5
625.438	15.5
626.199	16.5
626.961	15.5
627.722	16.5
628.484	13.5
629.245	13.5
630.006	13.5
630.768	15.5
631.529	11.5
632.29	15.5
633.051	12.5
633.812	13.5
634.573	10.5
635.333	10.5
636.094	10.5
636.855	11.5
637.615	10.5
638.376	10.5
639.136	9.5
639.896	10.5
640.657	9.5
641.417	9.5
642.177	9.5
642.937	8.5
643.697	7.5
644.457	8.5
645.216	9.5
645.976	8.5
646.736	9.5
647.495	9.5
648.255	6.5
649.014	10.5
649.774	8.5
650.533	7.5
651.292	5.5
652.051	7.5
652.81	9.5
653.569	4.5
654.328	5.5
655.087	7.5
655.846	8.5
656.604	6.5
657.363	6.5
658.121	7.5
658.88	5.5
659.638	7.5
660.397	8.5
661.155	6.5
661.913	5.5
662.671	3.5
663.429	4.5
664.187	4.5
664.945	5.5
665.703	7.5
666.46	3.5
667.218	5.5
667.976	5.5
668.733	4.5
669.49	6.5
670.248	4.5
671.005	4.5
671.762	6.5
672.519	3.5
673.276	4.5
674.033	3.5
674.79	4.5
675.547	1.5
676.304	5.5
677.06	3.5
677.817	5.5
678.574	3.5
679.33	5.5
680.086	2.5
680.843	2.5
681.599	2.5
682.355	3.5
683.111	6.5
683.867	3.5
684.623	1.5
685.379	3.5
686.135	4.5
686.89	6.5
687.646	2.5
688.402	5.5
689.157	4.5
689.912	3.5
690.668	2.5
691.423	3.5
692.178	4.5
692.933	4.5
693.688	3.5
694.443	5.5
695.198	3.5
695.953	4.5
696.708	2.5
697.462	4.5
698.217	2.5
698.972	3.5
699.726	2.5
700.48	4.5
701.235	5.5
701.989	3.5
702.743	4.5
703.497	4.5
704.251	2.5
705.005	2.5
705.759	3.5
706.513	4.5
707.266	5.5
708.02	4.5
708.774	3.5
709.527	4.5
710.28	4.5
711.034	3.5
711.787	3.5
712.54	2.5
713.293	3.5
714.046	5.5
714.799	3.5
715.552	4.5
716.305	4.5
717.058	3.5
717.81	4.5
718.563	4.5
719.315	3.5
720.068	7.5
720.82	4.5
721.573	3.5
722.325	3.5
723.077	2.5
723.829	2.5
724.581	5.5
725.333	5.5
726.085	5.5
726.836	3.5
727.588	4.5
728.34	4.5
729.091	4.5
729.843	5.5
730.594	3.5
731.346	5.5
732.097	2.5
732.848	2.5
733.599	7.5
734.35	3.5
735.101	5.5
735.852	3.5
736.603	4.5
737.354	4.5
738.104	2.5
738.855	5.5
739.605	6.5
740.356	7.5
741.106	5.5
741.856	6.5
742.607	5.5
743.357	6.5
744.107	5.5
744.857	7.5
745.607	5.5
746.357	5.5
747.106	5.5
747.856	4.5
748.606	4.5
749.355	7.5
750.105	4.5
750.854	4.5
751.603	5.5
752.353	4.5
753.102	2.5
753.851	5.5
754.6	4.5
755.349	7.5
756.098	5.5
756.847	5.5
757.595	6.5
758.344	8.5
759.093	4.5
759.841	5.5
760.589	7.5
761.338	5.5
762.086	7.5
762.834	5.5
763.582	5.5
764.331	10.5
765.079	6.5
765.826	7.5
766.574	3.5
767.322	8.5
768.07	8.5
768.817	8.5
769.565	7.5
770.312	3.5
771.06	7.5
771.807	9.5
772.554	7.5
773.302	9.5
774.049	8.5
774.796	8.5
775.543	8.5
776.29	7.5
777.036	8.5
777.783	9.5
778.53	11.5
779.276	5.5
780.023	7.5
780.769	10.5
781.516	6.5
782.262	11.5
783.008	9.5
783.754	10.5
784.5	8.5
785.246	7.5
785.992	9.5
786.738	8.5
787.484	10.5
788.23	10.5
788.975	9.5
789.721	9.5
790.466	9.5
791.212	9.5
791.957	6.5
792.702	9.5
793.447	7.5
794.193	10.5
794.938	9.5
795.683	6.5
796.427	9.5
797.172	8.5
797.917	7.5
798.662	8.5
799.406	8.5
800.151	11.5
800.895	8.5
801.64	7.5
802.384	6.5
803.128	9.5
803.872	4.5
804.616	4.5
805.36	8.5
806.104	5.5
806.848	6.5
807.592	5.5
808.336	6.5
809.079	6.5
809.823	6.5
810.566	8.5
811.31	4.5
812.053	6.5
812.796	5.5
813.539	4.5
814.283	4.5
815.026	4.5
815.769	4.5
816.511	5.5
817.254	3.5
817.997	4.5
818.74	3.5
819.482	7.5
820.225	2.5
820.967	7.5
821.71	3.5
822.452	2.5
823.194	5.5
823.936	4.5
824.678	5.5
825.42	2.5
826.162	6.5
826.904	6.5
827.646	3.5
828.388	5.5
829.129	4.5
829.871	4.5
830.612	2.5
831.354	4.5
832.095	2.5
832.836	4.5
833.577	3.5
834.319	3.5
835.06	3.5
835.801	6.5
836.542	2.5
837.282	3.5
838.023	3.5
838.764	5.5
839.504	3.5
840.245	1.5
840.985	6.5
841.726	2.5
842.466	2.5
843.206	2.5
843.946	3.5
844.687	3.5
845.427	2.5
846.166	3.5
846.906	1.5
847.646	3.5
848.386	1.5
849.125	2.5
849.865	3.5
850.605	3.5
851.344	3.5
852.083	1.5
852.823	3.5
853.562	1.5
854.301	2.5
855.04	1.5
855.779	0.5
856.518	0.5
857.257	3.5
857.995	3.5
858.734	2.5
859.473	1.5
860.211	3.5
860.95	1.5
861.688	1.5
862.426	1.5
863.165	3.5
863.903	0.5
864.641	1.5
865.379	1.5
866.117	-0.5
866.855	1.5
867.593	0.5
868.33	0.5
869.068	1.5
869.806	3.5
870.543	0.5
871.28	2.5
872.018	0.5
872.755	1.5
873.492	1.5
874.229	2.5
874.967	1.5
875.703	1.5
876.44	1.5
877.177	0.5
877.914	0.5
878.651	1.5
879.387	1.5
880.124	2.5
880.86	1.5
881.597	0.5
882.333	2.5
883.069	1.5
883.806	1.5
884.542	-0.5
885.278	0.5
886.014	1.5
886.749	0.5
887.485	-0.5
888.221	1.5
888.957	3.5
889.692	1.5
890.428	1.5
891.163	0.5
891.899	0.5
892.634	1.5
893.369	0.5
894.104	3.5
894.839	1.5
895.574	-0.5
896.309	-1.5
897.044	1.5
897.779	1.5
898.514	1.5
899.248	1.5
899.983	-0.5
900.717	2.5
901.452	-2.5
902.186	0.5
902.92	0.5
903.654	-0.5
904.389	-0.5
905.123	-0.5
905.857	1.5
906.59	0.5
907.324	0.5
908.058	-0.5
908.792	-0.5
909.525	1.5
910.259	1.5
910.992	2.5
911.726	-2.5
912.459	-0.5
913.192	1.5
913.925	0.5
914.658	0.5
915.391	1.5
916.124	1.5
916.857	1.5
917.59	1.5
918.323	1.5
919.055	0.5
919.788	0.5
920.521	0.5
921.253	-1.5
921.985	1.5
922.718	0.5
923.45	-0.5
924.182	0.5
924.914	1.5
925.646	0.5
926.378	2.5
927.11	1.5
927.841	-0.5
928.573	-1.5
929.305	0.5
930.036	1.5
930.768	-0.5
931.499	0.5
932.23	-0.5
932.962	-2.5
933.693	-0.5
934.424	1.5
935.155	0.5
935.886	1.5
936.617	0.5
937.348	-0.5
938.078	0.5
938.809	1.5
939.54	1.5
940.27	3.5
941.001	-0.5
941.731	-1.5
942.461	2.5
943.191	0.5
943.922	0.5
944.652	3.5
945.382	-0.5
946.112	-3.5
946.841	0.5
947.571	1.5
948.301	0.5
949.031	0.5
949.76	1.5
950.49	-0.5
951.219	-0.5
951.948	-1.5
952.678	0.5
953.407	-0.5
954.136	0.5
954.865	-0.5
955.594	1.5
956.323	-0.5
957.052	-1.5
957.78	1.5
958.509	0.5
959.238	-0.5
959.966	0.5
960.695	0.5
961.423	1.5
962.151	1.5
962.88	2.5
963.608	-1.5
964.336	1.5
965.064	0.5
965.792	0.5
966.52	0.5
967.247	0.5
967.975	-0.5
968.703	1.5
969.43	0.5
970.158	2.5
970.885	-0.5
971.613	0.5
972.34	-1.5
973.067	0.5
973.794	0.5
974.521	-0.5
975.248	-0.5
975.975	2.5
976.702	0.5
977.429	0.5
978.156	-0.5
978.882	0.5
979.609	-0.5
980.335	0.5
981.062	0.5
981.788	1.5
982.514	0.5
983.24	-1.5
983.967	2.5
984.693	-2.5
985.419	-0.5
986.144	0.5
986.87	0.5
987.596	-0.5
988.322	-1.5
989.047	0.5
989.773	2.5
990.498	2.5
991.224	1.5
991.949	-0.5
992.674	1.5
993.399	-0.5
994.124	0.5
994.849	0.5
995.574	-2.5
996.299	1.5
997.024	-0.5
997.749	0.5
998.473	-0.5
999.198	-0.5
999.922	3.5
1000.647	-3.5
1001.371	4.5
1002.095	-1.5
1002.82	-0.5
1003.544	-2.5
1004.268	0.5
1004.992	1.5
1005.716	1.5
1006.439	1.5
1007.163	1.5
1007.887	3.5
1008.611	1.5
1009.334	-0.5
1010.058	0.5
1010.781	0.5
1011.504	0.5
1012.228	2.5
1012.951	-0.5
1013.674	0.5
1014.397	0.5
1015.12	-0.5
