节点500_285_QEPB04081__552__15-04-44-275.txt的数据

Date: Wed Nov 12 15:04:44 CST 2025
User: PC
Spectrometer: QEPB0408
触发模式: 0
积分时间 (秒): 1.000000E-2
Scans to average: 1
启用暗噪声校正: true
启用非线性校正: false
滑动平均宽度: 0
X轴模式: Wavelengths
Number of Pixels in Spectrum: 1044
>>>>>Begin Spectral Data<<<<<
220.843	2.12
221.644	0.12
222.444	2.12
223.244	1.12
224.045	3.12
224.845	5.12
225.645	1.12
226.445	1.12
227.245	2.12
228.045	0.12
228.845	3.12
229.645	1.12
230.444	3.12
231.244	3.12
232.043	3.12
232.843	1.12
233.642	2.12
234.442	3.12
235.241	7.12
236.04	5.12
236.839	2.12
237.638	5.12
238.437	5.12
239.236	3.12
240.035	5.12
240.833	2.12
241.632	7.12
242.43	3.12
243.229	4.12
244.027	4.12
244.826	6.12
245.624	6.12
246.422	6.12
247.22	5.12
248.018	5.12
248.816	6.12
249.614	6.12
250.412	3.12
251.21	8.12
252.007	6.12
252.805	9.12
253.602	4.12
254.4	6.12
255.197	10.12
255.994	7.12
256.791	9.12
257.589	10.12
258.386	10.12
259.183	10.12
259.979	9.12
260.776	10.12
261.573	11.12
262.37	9.12
263.166	12.12
263.963	9.12
264.759	13.12
265.556	10.12
266.352	10.12
267.148	12.12
267.944	14.12
268.74	15.12
269.536	13.12
270.332	12.12
271.128	13.12
271.924	17.12
272.719	17.12
273.515	13.12
274.311	15.12
275.106	16.12
275.901	15.12
276.697	18.12
277.492	18.12
278.287	15.12
279.082	19.12
279.877	16.12
280.672	21.12
281.467	17.12
282.262	17.12
283.056	16.12
283.851	18.12
284.646	19.12
285.44	18.12
286.234	20.12
287.029	20.12
287.823	20.12
288.617	18.12
289.411	17.12
290.205	17.12
290.999	18.12
291.793	14.12
292.587	18.12
293.381	14.12
294.174	18.12
294.968	15.12
295.761	14.12
296.555	14.12
297.348	15.12
298.141	16.12
298.935	20.12
299.728	13.12
300.521	17.12
301.314	10.12
302.107	17.12
302.899	13.12
303.692	14.12
304.485	13.12
305.277	12.12
306.07	13.12
306.862	10.12
307.655	13.12
308.447	13.12
309.239	12.12
310.031	13.12
310.823	11.12
311.615	10.12
312.407	12.12
313.199	9.12
313.991	11.12
314.783	10.12
315.574	9.12
316.366	8.12
317.157	7.12
317.949	8.12
318.74	7.12
319.531	8.12
320.322	6.12
321.113	9.12
321.904	8.12
322.695	9.12
323.486	9.12
324.277	6.12
325.068	6.12
325.858	7.12
326.649	6.12
327.439	8.12
328.23	7.12
329.02	6.12
329.81	4.12
330.6	8.12
331.391	9.12
332.181	9.12
332.971	7.12
333.76	8.12
334.55	8.12
335.34	9.12
336.13	5.12
336.919	6.12
337.709	6.12
338.498	8.12
339.287	10.12
340.077	8.12
340.866	5.12
341.655	5.12
342.444	8.12
343.233	8.12
344.022	8.12
344.811	7.12
345.6	7.12
346.388	5.12
347.177	6.12
347.965	9.12
348.754	6.12
349.542	8.12
350.33	2.12
351.119	5.12
351.907	5.12
352.695	8.12
353.483	4.12
354.271	5.12
355.059	5.12
355.846	7.12
356.634	5.12
357.422	5.12
358.209	4.12
358.997	7.12
359.784	5.12
360.571	6.12
361.359	6.12
362.146	7.12
362.933	5.12
363.72	5.12
364.507	3.12
365.294	4.12
366.081	5.12
366.867	2.12
367.654	7.12
368.44	3.12
369.227	3.12
370.013	7.12
370.8	4.12
371.586	6.12
372.372	5.12
373.158	6.12
373.944	4.12
374.73	5.12
375.516	6.12
376.302	3.12
377.088	7.12
377.873	5.12
378.659	4.12
379.445	6.12
380.23	6.12
381.015	5.12
381.801	4.12
382.586	2.12
383.371	5.12
384.156	5.12
384.941	6.12
385.726	2.12
386.511	7.12
387.296	7.12
388.08	5.12
388.865	7.12
389.649	6.12
390.434	7.12
391.218	6.12
392.003	6.12
392.787	5.12
393.571	6.12
394.355	7.12
395.139	5.12
395.923	10.12
396.707	6.12
397.491	8.12
398.274	5.12
399.058	9.12
399.842	6.12
400.625	3.12
401.408	8.12
402.192	8.12
402.975	7.12
403.758	8.12
404.541	8.12
405.324	8.12
406.107	5.12
406.89	7.12
407.673	7.12
408.456	8.12
409.238	8.12
410.021	7.12
410.803	8.12
411.586	7.12
412.368	8.12
413.151	7.12
413.933	8.12
414.715	10.12
415.497	10.12
416.279	7.12
417.061	9.12
417.843	12.12
418.624	9.12
419.406	9.12
420.188	10.12
420.969	10.12
421.751	10.12
422.532	9.12
423.313	13.12
424.095	12.12
424.876	11.12
425.657	12.12
426.438	12.12
427.219	12.12
428	13.12
428.78	13.12
429.561	13.12
430.342	13.12
431.122	18.12
431.903	15.12
432.683	15.12
433.464	16.12
434.244	14.12
435.024	18.12
435.804	17.12
436.584	20.12
437.364	19.12
438.144	18.12
438.924	23.12
439.704	17.12
440.483	25.12
441.263	27.12
442.042	25.12
442.822	28.12
443.601	28.12
444.38	30.12
445.16	30.12
445.939	32.12
446.718	38.12
447.497	38.12
448.276	42.12
449.054	43.12
449.833	52.12
450.612	55.12
451.391	57.12
452.169	65.12
452.948	72.12
453.726	78.12
454.504	85.12
455.282	94.12
456.061	107.12
456.839	117.12
457.617	130.12
458.395	139.12
459.172	157.12
459.95	170.12
460.728	201.12
461.506	222.12
462.283	247.12
463.061	280.12
463.838	306.12
464.615	339.12
465.393	369.12
466.17	421.12
466.947	466.12
467.724	521.12
468.501	578.12
469.278	640.12
470.055	718.12
470.831	807.12
471.608	883.12
472.385	970.12
473.161	1071.12
473.938	1184.12
474.714	1313.12
475.49	1472.12
476.266	1590.12
477.043	1760.12
477.819	1937.12
478.595	2126.12
479.371	2352.12
480.146	2613.12
480.922	2845.12
481.698	3131.12
482.473	3423.12
483.249	3753.12
484.024	4122.12
484.8	4530.12
485.575	4940.12
486.35	5399.12
487.126	5929.12
487.901	6491.12
488.676	7122.12
489.451	7713.12
490.225	8427.12
491	9188.12
491.775	10020.12
492.55	10925.12
493.324	11791.12
494.099	12657.12
494.873	13646.12
495.647	14669.12
496.422	15725.12
497.196	16858.12
497.97	17970.12
498.744	19115.12
499.518	20212.12
500.292	21316.12
501.066	22387.12
501.839	23370.12
502.613	24277.12
503.387	25023.12
504.16	25732.12
504.934	26090.12
505.707	26396.12
506.48	26588.12
507.253	26570.12
508.027	26373.12
508.8	26267.12
509.573	25992.12
510.346	25484.12
511.118	24772.12
511.891	24064.12
512.664	23364.12
513.437	22519.12
514.209	21627.12
514.982	20834.12
515.754	19944.12
516.526	19050.12
517.298	18277.12
518.071	17431.12
518.843	16762.12
519.615	16203.12
520.387	15534.12
521.159	14933.12
521.93	14339.12
522.702	13761.12
523.474	13225.12
524.245	12652.12
525.017	12071.12
525.788	11643.12
526.56	11123.12
527.331	10598.12
528.102	10162.12
528.873	9680.12
529.644	9207.12
530.415	8787.12
531.186	8352.12
531.957	7914.12
532.728	7523.12
533.498	7179.12
534.269	6741.12
535.039	6407.12
535.81	6015.12
536.58	5680.12
537.351	5379.12
538.121	5126.12
538.891	4825.12
539.661	4573.12
540.431	4325.12
541.201	4070.12
541.971	3853.12
542.741	3659.12
543.51	3494.12
544.28	3314.12
545.05	3129.12
545.819	2988.12
546.588	2863.12
547.358	2721.12
548.127	2578.12
548.896	2442.12
549.665	2313.12
550.434	2197.12
551.203	2072.12
551.972	1948.12
552.741	1856.12
553.51	1761.12
554.278	1671.12
555.047	1562.12
555.815	1486.12
556.584	1401.12
557.352	1326.12
558.121	1245.12
558.889	1185.12
559.657	1125.12
560.425	1061.12
561.193	993.12
561.961	941.12
562.729	894.12
563.496	840.12
564.264	792.12
565.032	741.12
565.799	723.12
566.567	665.12
567.334	634.12
568.101	592.12
568.869	564.12
569.636	533.12
570.403	506.12
571.17	467.12
571.937	447.12
572.704	436.12
573.471	403.12
574.237	373.12
575.004	360.12
575.771	333.12
576.537	308.12
577.303	294.12
578.07	280.12
578.836	259.12
579.602	235.12
580.368	228.12
581.134	221.12
581.9	209.12
582.666	196.12
583.432	188.12
584.198	179.12
584.964	166.12
585.729	163.12
586.495	155.12
587.26	144.12
588.025	138.12
588.791	125.12
589.556	125.12
590.321	119.12
591.086	115.12
591.851	104.12
592.616	99.12
593.381	97.12
594.146	88.12
594.911	85.12
595.675	81.12
596.44	80.12
597.204	74.12
597.969	72.12
598.733	67.12
599.497	62.12
600.261	60.12
601.025	61.12
601.79	57.12
602.553	55.12
603.317	51.12
604.081	51.12
604.845	48.12
605.609	44.12
606.372	44.12
607.136	42.12
607.899	40.12
608.662	40.12
609.426	39.12
610.189	32.12
610.952	34.12
611.715	33.12
612.478	33.12
613.241	33.12
614.004	27.12
614.767	26.12
615.529	25.12
616.292	27.12
617.055	26.12
617.817	24.12
618.579	22.12
619.342	27.12
620.104	21.12
620.866	20.12
621.628	20.12
622.39	21.12
623.152	18.12
623.914	18.12
624.676	17.12
625.438	16.12
626.199	16.12
626.961	18.12
627.722	14.12
628.484	15.12
629.245	13.12
630.006	13.12
630.768	15.12
631.529	15.12
632.29	13.12
633.051	14.12
633.812	13.12
634.573	12.12
635.333	14.12
636.094	13.12
636.855	13.12
637.615	9.12
638.376	10.12
639.136	9.12
639.896	11.12
640.657	9.12
641.417	11.12
642.177	10.12
642.937	7.12
643.697	10.12
644.457	8.12
645.216	11.12
645.976	8.12
646.736	9.12
647.495	9.12
648.255	7.12
649.014	9.12
649.774	6.12
650.533	6.12
651.292	9.12
652.051	5.12
652.81	6.12
653.569	3.12
654.328	9.12
655.087	7.12
655.846	5.12
656.604	5.12
657.363	5.12
658.121	5.12
658.88	6.12
659.638	7.12
660.397	4.12
661.155	6.12
661.913	4.12
662.671	7.12
663.429	6.12
664.187	4.12
664.945	5.12
665.703	7.12
666.46	4.12
667.218	5.12
667.976	6.12
668.733	6.12
669.49	4.12
670.248	6.12
671.005	5.12
671.762	2.12
672.519	4.12
673.276	4.12
674.033	3.12
674.79	4.12
675.547	4.12
676.304	4.12
677.06	5.12
677.817	2.12
678.574	3.12
679.33	3.12
680.086	5.12
680.843	1.12
681.599	5.12
682.355	3.12
683.111	5.12
683.867	2.12
684.623	4.12
685.379	5.12
686.135	5.12
686.89	2.12
687.646	3.12
688.402	4.12
689.157	6.12
689.912	4.12
690.668	6.12
691.423	3.12
692.178	6.12
692.933	2.12
693.688	6.12
694.443	3.12
695.198	3.12
695.953	3.12
696.708	5.12
697.462	6.12
698.217	1.12
698.972	1.12
699.726	4.12
700.48	2.12
701.235	2.12
701.989	2.12
702.743	4.12
703.497	2.12
704.251	2.12
705.005	4.12
705.759	2.12
706.513	5.12
707.266	5.12
708.02	4.12
708.774	3.12
709.527	2.12
710.28	5.12
711.034	5.12
711.787	3.12
712.54	3.12
713.293	3.12
714.046	6.12
714.799	5.12
715.552	4.12
716.305	3.12
717.058	3.12
717.81	4.12
718.563	5.12
719.315	4.12
720.068	3.12
720.82	3.12
721.573	2.12
722.325	4.12
723.077	4.12
723.829	3.12
724.581	5.12
725.333	2.12
726.085	5.12
726.836	4.12
727.588	1.12
728.34	4.12
729.091	4.12
729.843	5.12
730.594	6.12
731.346	5.12
732.097	3.12
732.848	4.12
733.599	3.12
734.35	4.12
735.101	4.12
735.852	3.12
736.603	7.12
737.354	4.12
738.104	2.12
738.855	5.12
739.605	3.12
740.356	6.12
741.106	4.12
741.856	6.12
742.607	4.12
743.357	3.12
744.107	7.12
744.857	3.12
745.607	5.12
746.357	4.12
747.106	7.12
747.856	4.12
748.606	5.12
749.355	5.12
750.105	5.12
750.854	4.12
751.603	5.12
752.353	6.12
753.102	7.12
753.851	4.12
754.6	7.12
755.349	6.12
756.098	6.12
756.847	6.12
757.595	6.12
758.344	7.12
759.093	6.12
759.841	6.12
760.589	7.12
761.338	7.12
762.086	8.12
762.834	6.12
763.582	6.12
764.331	4.12
765.079	6.12
765.826	4.12
766.574	7.12
767.322	7.12
768.07	6.12
768.817	8.12
769.565	7.12
770.312	8.12
771.06	8.12
771.807	8.12
772.554	6.12
773.302	7.12
774.049	7.12
774.796	7.12
775.543	7.12
776.29	8.12
777.036	7.12
777.783	8.12
778.53	9.12
779.276	8.12
780.023	8.12
780.769	8.12
781.516	10.12
782.262	6.12
783.008	9.12
783.754	7.12
784.5	10.12
785.246	10.12
785.992	9.12
786.738	10.12
787.484	10.12
788.23	8.12
788.975	10.12
789.721	8.12
790.466	9.12
791.212	8.12
791.957	9.12
792.702	8.12
793.447	11.12
794.193	10.12
794.938	6.12
795.683	10.12
796.427	6.12
797.172	8.12
797.917	5.12
798.662	9.12
799.406	7.12
800.151	8.12
800.895	6.12
801.64	8.12
802.384	6.12
803.128	6.12
803.872	7.12
804.616	6.12
805.36	3.12
806.104	6.12
806.848	5.12
807.592	9.12
808.336	4.12
809.079	7.12
809.823	5.12
810.566	6.12
811.31	5.12
812.053	8.12
812.796	6.12
813.539	5.12
814.283	5.12
815.026	4.12
815.769	4.12
816.511	5.12
817.254	5.12
817.997	6.12
818.74	4.12
819.482	3.12
820.225	8.12
820.967	3.12
821.71	5.12
822.452	2.12
823.194	4.12
823.936	5.12
824.678	3.12
825.42	5.12
826.162	2.12
826.904	4.12
827.646	3.12
828.388	3.12
829.129	5.12
829.871	3.12
830.612	5.12
831.354	3.12
832.095	4.12
832.836	3.12
833.577	5.12
834.319	5.12
835.06	4.12
835.801	5.12
836.542	4.12
837.282	5.12
838.023	5.12
838.764	3.12
839.504	6.12
840.245	5.12
840.985	1.12
841.726	3.12
842.466	3.12
843.206	3.12
843.946	4.12
844.687	5.12
845.427	2.12
846.166	2.12
846.906	3.12
847.646	3.12
848.386	4.12
849.125	2.12
849.865	3.12
850.605	4.12
851.344	3.12
852.083	2.12
852.823	2.12
853.562	4.12
854.301	3.12
855.04	2.12
855.779	2.12
856.518	3.12
857.257	3.12
857.995	2.12
858.734	2.12
859.473	2.12
860.211	4.12
860.95	3.12
861.688	5.12
862.426	3.12
863.165	1.12
863.903	2.12
864.641	2.12
865.379	3.12
866.117	2.12
866.855	0.12
867.593	2.12
868.33	1.12
869.068	2.12
869.806	2.12
870.543	-0.88
871.28	2.12
872.018	4.12
872.755	2.12
873.492	2.12
874.229	2.12
874.967	-0.88
875.703	1.12
876.44	1.12
877.177	2.12
877.914	0.12
878.651	1.12
879.387	0.12
880.124	2.12
880.86	3.12
881.597	1.12
882.333	1.12
883.069	1.12
883.806	2.12
884.542	-1.88
885.278	1.12
886.014	2.12
886.749	1.12
887.485	0.12
888.221	2.12
888.957	0.12
889.692	1.12
890.428	3.12
891.163	2.12
891.899	2.12
892.634	2.12
893.369	1.12
894.104	1.12
894.839	1.12
895.574	1.12
896.309	4.12
897.044	2.12
897.779	1.12
898.514	1.12
899.248	2.12
899.983	-0.88
900.717	1.12
901.452	1.12
902.186	0.12
902.92	1.12
903.654	0.12
904.389	0.12
905.123	0.12
905.857	2.12
906.59	2.12
907.324	0.12
908.058	1.12
908.792	1.12
909.525	1.12
910.259	-1.88
910.992	2.12
911.726	2.12
912.459	2.12
913.192	1.12
913.925	2.12
914.658	2.12
915.391	1.12
916.124	0.12
916.857	-1.88
917.59	1.12
918.323	2.12
919.055	-1.88
919.788	0.12
920.521	0.12
921.253	1.12
921.985	-0.88
922.718	-0.88
923.45	-0.88
924.182	0.12
924.914	3.12
925.646	2.12
926.378	1.12
927.11	3.12
927.841	0.12
928.573	1.12
929.305	0.12
930.036	0.12
930.768	1.12
931.499	1.12
932.23	1.12
932.962	0.12
933.693	1.12
934.424	1.12
935.155	0.12
935.886	2.12
936.617	-1.88
937.348	2.12
938.078	0.12
938.809	2.12
939.54	1.12
940.27	2.12
941.001	1.12
941.731	0.12
942.461	0.12
943.191	0.12
943.922	3.12
944.652	0.12
945.382	1.12
946.112	1.12
946.841	-0.88
947.571	0.12
948.301	-0.88
949.031	3.12
949.76	1.12
950.49	1.12
951.219	-1.88
951.948	1.12
952.678	2.12
953.407	0.12
954.136	0.12
954.865	2.12
955.594	0.12
956.323	1.12
957.052	0.12
957.78	1.12
958.509	0.12
959.238	-1.88
959.966	-1.88
960.695	0.12
961.423	2.12
962.151	0.12
962.88	-0.88
963.608	1.12
964.336	0.12
965.064	0.12
965.792	-0.88
966.52	-0.88
967.247	0.12
967.975	0.12
968.703	-2.88
969.43	2.12
970.158	1.12
970.885	-2.88
971.613	1.12
972.34	-1.88
973.067	-0.88
973.794	0.12
974.521	0.12
975.248	2.12
975.975	1.12
976.702	1.12
977.429	1.12
978.156	-1.88
978.882	1.12
979.609	-1.88
980.335	2.12
981.062	-1.88
981.788	2.12
982.514	0.12
983.24	0.12
983.967	-2.88
984.693	1.12
985.419	2.12
986.144	0.12
986.87	1.12
987.596	1.12
988.322	1.12
989.047	2.12
989.773	0.12
990.498	2.12
991.224	0.12
991.949	1.12
992.674	1.12
993.399	-1.88
994.124	0.12
994.849	-0.88
995.574	2.12
996.299	-0.88
997.024	0.12
997.749	2.12
998.473	-1.88
999.198	1.12
999.922	1.12
1000.647	1.12
1001.371	4.12
1002.095	1.12
1002.82	-1.88
1003.544	-0.88
1004.268	3.12
1004.992	1.12
1005.716	2.12
1006.439	0.12
1007.163	2.12
1007.887	1.12
1008.611	0.12
1009.334	0.12
1010.058	2.12
1010.781	-0.88
1011.504	2.12
1012.228	-0.88
1012.951	0.12
1013.674	-0.88
1014.397	-1.88
1015.12	0.12
