节点500_285_QEPB04081__738__15-07-49-814.txt的数据

Date: Wed Nov 12 15:07:49 CST 2025
User: PC
Spectrometer: QEPB0408
触发模式: 0
积分时间 (秒): 1.000000E-2
Scans to average: 1
启用暗噪声校正: true
启用非线性校正: false
滑动平均宽度: 0
X轴模式: Wavelengths
Number of Pixels in Spectrum: 1044
>>>>>Begin Spectral Data<<<<<
220.843	0.62
221.644	1.62
222.444	3.62
223.244	1.62
224.045	2.62
224.845	1.62
225.645	-1.38
226.445	2.62
227.245	2.62
228.045	3.62
228.845	5.62
229.645	1.62
230.444	1.62
231.244	4.62
232.043	3.62
232.843	2.62
233.642	3.62
234.442	3.62
235.241	2.62
236.04	3.62
236.839	2.62
237.638	5.62
238.437	2.62
239.236	3.62
240.035	3.62
240.833	2.62
241.632	4.62
242.43	7.62
243.229	5.62
244.027	7.62
244.826	4.62
245.624	6.62
246.422	2.62
247.22	5.62
248.018	5.62
248.816	8.62
249.614	4.62
250.412	7.62
251.21	4.62
252.007	6.62
252.805	7.62
253.602	6.62
254.4	7.62
255.197	8.62
255.994	7.62
256.791	6.62
257.589	8.62
258.386	9.62
259.183	9.62
259.979	9.62
260.776	11.62
261.573	9.62
262.37	8.62
263.166	9.62
263.963	9.62
264.759	10.62
265.556	11.62
266.352	12.62
267.148	10.62
267.944	10.62
268.74	12.62
269.536	9.62
270.332	14.62
271.128	14.62
271.924	14.62
272.719	11.62
273.515	16.62
274.311	16.62
275.106	19.62
275.901	16.62
276.697	14.62
277.492	17.62
278.287	18.62
279.082	16.62
279.877	16.62
280.672	18.62
281.467	17.62
282.262	14.62
283.056	17.62
283.851	20.62
284.646	19.62
285.44	16.62
286.234	14.62
287.029	18.62
287.823	18.62
288.617	16.62
289.411	16.62
290.205	19.62
290.999	20.62
291.793	16.62
292.587	16.62
293.381	16.62
294.174	17.62
294.968	18.62
295.761	16.62
296.555	14.62
297.348	14.62
298.141	17.62
298.935	13.62
299.728	16.62
300.521	12.62
301.314	13.62
302.107	14.62
302.899	13.62
303.692	13.62
304.485	12.62
305.277	15.62
306.07	14.62
306.862	16.62
307.655	13.62
308.447	15.62
309.239	12.62
310.031	11.62
310.823	11.62
311.615	11.62
312.407	12.62
313.199	11.62
313.991	9.62
314.783	13.62
315.574	7.62
316.366	9.62
317.157	9.62
317.949	7.62
318.74	7.62
319.531	9.62
320.322	7.62
321.113	9.62
321.904	9.62
322.695	8.62
323.486	9.62
324.277	8.62
325.068	6.62
325.858	8.62
326.649	7.62
327.439	8.62
328.23	6.62
329.02	5.62
329.81	6.62
330.6	3.62
331.391	7.62
332.181	7.62
332.971	9.62
333.76	8.62
334.55	5.62
335.34	7.62
336.13	6.62
336.919	5.62
337.709	7.62
338.498	7.62
339.287	6.62
340.077	7.62
340.866	4.62
341.655	6.62
342.444	5.62
343.233	6.62
344.022	4.62
344.811	7.62
345.6	5.62
346.388	5.62
347.177	7.62
347.965	5.62
348.754	6.62
349.542	3.62
350.33	9.62
351.119	3.62
351.907	6.62
352.695	7.62
353.483	4.62
354.271	9.62
355.059	6.62
355.846	7.62
356.634	5.62
357.422	8.62
358.209	6.62
358.997	7.62
359.784	5.62
360.571	5.62
361.359	5.62
362.146	6.62
362.933	6.62
363.72	7.62
364.507	5.62
365.294	5.62
366.081	7.62
366.867	7.62
367.654	4.62
368.44	6.62
369.227	4.62
370.013	2.62
370.8	5.62
371.586	4.62
372.372	6.62
373.158	3.62
373.944	7.62
374.73	7.62
375.516	4.62
376.302	5.62
377.088	2.62
377.873	7.62
378.659	4.62
379.445	4.62
380.23	8.62
381.015	6.62
381.801	5.62
382.586	5.62
383.371	5.62
384.156	5.62
384.941	5.62
385.726	6.62
386.511	7.62
387.296	7.62
388.08	2.62
388.865	6.62
389.649	4.62
390.434	4.62
391.218	7.62
392.003	4.62
392.787	6.62
393.571	6.62
394.355	5.62
395.139	4.62
395.923	6.62
396.707	8.62
397.491	6.62
398.274	6.62
399.058	6.62
399.842	6.62
400.625	6.62
401.408	7.62
402.192	6.62
402.975	7.62
403.758	6.62
404.541	6.62
405.324	9.62
406.107	8.62
406.89	7.62
407.673	10.62
408.456	8.62
409.238	7.62
410.021	9.62
410.803	8.62
411.586	9.62
412.368	10.62
413.151	8.62
413.933	10.62
414.715	10.62
415.497	9.62
416.279	10.62
417.061	10.62
417.843	10.62
418.624	9.62
419.406	9.62
420.188	10.62
420.969	10.62
421.751	10.62
422.532	10.62
423.313	9.62
424.095	11.62
424.876	12.62
425.657	11.62
426.438	13.62
427.219	12.62
428	12.62
428.78	10.62
429.561	11.62
430.342	10.62
431.122	14.62
431.903	17.62
432.683	14.62
433.464	14.62
434.244	17.62
435.024	16.62
435.804	17.62
436.584	19.62
437.364	18.62
438.144	19.62
438.924	20.62
439.704	19.62
440.483	22.62
441.263	26.62
442.042	21.62
442.822	26.62
443.601	32.62
444.38	29.62
445.16	34.62
445.939	34.62
446.718	38.62
447.497	41.62
448.276	42.62
449.054	46.62
449.833	49.62
450.612	58.62
451.391	61.62
452.169	67.62
452.948	76.62
453.726	85.62
454.504	91.62
455.282	98.62
456.061	111.62
456.839	122.62
457.617	135.62
458.395	153.62
459.172	173.62
459.95	183.62
460.728	207.62
461.506	234.62
462.283	257.62
463.061	293.62
463.838	325.62
464.615	360.62
465.393	397.62
466.17	436.62
466.947	497.62
467.724	547.62
468.501	598.62
469.278	666.62
470.055	742.62
470.831	820.62
471.608	893.62
472.385	993.62
473.161	1102.62
473.938	1205.62
474.714	1336.62
475.49	1447.62
476.266	1606.62
477.043	1762.62
477.819	1930.62
478.595	2135.62
479.371	2322.62
480.146	2544.62
480.922	2787.62
481.698	3052.62
482.473	3356.62
483.249	3654.62
484.024	3990.62
484.8	4335.62
485.575	4726.62
486.35	5201.62
487.126	5650.62
487.901	6148.62
488.676	6712.62
489.451	7330.62
490.225	7952.62
491	8638.62
491.775	9366.62
492.55	10156.62
493.324	10949.62
494.099	11758.62
494.873	12639.62
495.647	13550.62
496.422	14552.62
497.196	15589.62
497.97	16638.62
498.744	17687.62
499.518	18744.62
500.292	19734.62
501.066	20799.62
501.839	21716.62
502.613	22602.62
503.387	23422.62
504.16	24090.62
504.934	24530.62
505.707	24934.62
506.48	25171.62
507.253	25280.62
508.027	25311.62
508.8	25234.62
509.573	25117.62
510.346	24667.62
511.118	24212.62
511.891	23658.62
512.664	23000.62
513.437	22262.62
514.209	21494.62
514.982	20739.62
515.754	19862.62
516.526	19110.62
517.298	18304.62
518.071	17567.62
518.843	16894.62
519.615	16239.62
520.387	15673.62
521.159	15045.62
521.93	14395.62
522.702	13905.62
523.474	13293.62
524.245	12708.62
525.017	12205.62
525.788	11777.62
526.56	11235.62
527.331	10720.62
528.102	10226.62
528.873	9791.62
529.644	9316.62
530.415	8959.62
531.186	8489.62
531.957	8053.62
532.728	7717.62
533.498	7345.62
534.269	6932.62
535.039	6553.62
535.81	6214.62
536.58	5861.62
537.351	5528.62
538.121	5233.62
538.891	5001.62
539.661	4700.62
540.431	4431.62
541.201	4207.62
541.971	3980.62
542.741	3762.62
543.51	3575.62
544.28	3429.62
545.05	3250.62
545.819	3076.62
546.588	2940.62
547.358	2775.62
548.127	2646.62
548.896	2525.62
549.665	2389.62
550.434	2255.62
551.203	2154.62
551.972	2030.62
552.741	1920.62
553.51	1814.62
554.278	1733.62
555.047	1648.62
555.815	1539.62
556.584	1461.62
557.352	1372.62
558.121	1286.62
558.889	1225.62
559.657	1169.62
560.425	1102.62
561.193	1037.62
561.961	967.62
562.729	926.62
563.496	869.62
564.264	820.62
565.032	781.62
565.799	731.62
566.567	702.62
567.334	651.62
568.101	627.62
568.869	579.62
569.636	550.62
570.403	525.62
571.17	491.62
571.937	467.62
572.704	436.62
573.471	413.62
574.237	393.62
575.004	373.62
575.771	345.62
576.537	320.62
577.303	305.62
578.07	288.62
578.836	275.62
579.602	256.62
580.368	245.62
581.134	236.62
581.9	214.62
582.666	207.62
583.432	194.62
584.198	186.62
584.964	180.62
585.729	166.62
586.495	159.62
587.26	155.62
588.025	143.62
588.791	134.62
589.556	127.62
590.321	119.62
591.086	116.62
591.851	109.62
592.616	106.62
593.381	101.62
594.146	93.62
594.911	90.62
595.675	82.62
596.44	82.62
597.204	76.62
597.969	72.62
598.733	73.62
599.497	69.62
600.261	62.62
601.025	61.62
601.79	58.62
602.553	57.62
603.317	54.62
604.081	51.62
604.845	49.62
605.609	49.62
606.372	47.62
607.136	46.62
607.899	44.62
608.662	39.62
609.426	38.62
610.189	37.62
610.952	35.62
611.715	33.62
612.478	32.62
613.241	30.62
614.004	29.62
614.767	31.62
615.529	28.62
616.292	28.62
617.055	27.62
617.817	24.62
618.579	25.62
619.342	23.62
620.104	23.62
620.866	23.62
621.628	20.62
622.39	20.62
623.152	20.62
623.914	17.62
624.676	16.62
625.438	22.62
626.199	18.62
626.961	14.62
627.722	16.62
628.484	15.62
629.245	14.62
630.006	17.62
630.768	12.62
631.529	14.62
632.29	13.62
633.051	15.62
633.812	12.62
634.573	14.62
635.333	11.62
636.094	11.62
636.855	14.62
637.615	9.62
638.376	10.62
639.136	8.62
639.896	12.62
640.657	10.62
641.417	9.62
642.177	8.62
642.937	7.62
643.697	10.62
644.457	8.62
645.216	8.62
645.976	8.62
646.736	8.62
647.495	10.62
648.255	7.62
649.014	7.62
649.774	6.62
650.533	9.62
651.292	7.62
652.051	7.62
652.81	4.62
653.569	7.62
654.328	7.62
655.087	6.62
655.846	5.62
656.604	7.62
657.363	6.62
658.121	4.62
658.88	7.62
659.638	4.62
660.397	5.62
661.155	5.62
661.913	6.62
662.671	4.62
663.429	5.62
664.187	5.62
664.945	10.62
665.703	2.62
666.46	4.62
667.218	7.62
667.976	7.62
668.733	4.62
669.49	7.62
670.248	3.62
671.005	3.62
671.762	6.62
672.519	5.62
673.276	6.62
674.033	8.62
674.79	3.62
675.547	4.62
676.304	6.62
677.06	3.62
677.817	4.62
678.574	5.62
679.33	3.62
680.086	4.62
680.843	5.62
681.599	3.62
682.355	4.62
683.111	3.62
683.867	1.62
684.623	6.62
685.379	5.62
686.135	2.62
686.89	2.62
687.646	2.62
688.402	4.62
689.157	5.62
689.912	2.62
690.668	5.62
691.423	2.62
692.178	5.62
692.933	1.62
693.688	5.62
694.443	2.62
695.198	2.62
695.953	3.62
696.708	3.62
697.462	5.62
698.217	3.62
698.972	5.62
699.726	4.62
700.48	3.62
701.235	4.62
701.989	3.62
702.743	5.62
703.497	4.62
704.251	5.62
705.005	5.62
705.759	6.62
706.513	2.62
707.266	2.62
708.02	4.62
708.774	5.62
709.527	4.62
710.28	5.62
711.034	1.62
711.787	7.62
712.54	2.62
713.293	4.62
714.046	5.62
714.799	3.62
715.552	3.62
716.305	2.62
717.058	6.62
717.81	2.62
718.563	3.62
719.315	4.62
720.068	2.62
720.82	5.62
721.573	5.62
722.325	6.62
723.077	3.62
723.829	4.62
724.581	2.62
725.333	4.62
726.085	4.62
726.836	2.62
727.588	5.62
728.34	2.62
729.091	5.62
729.843	4.62
730.594	2.62
731.346	4.62
732.097	4.62
732.848	6.62
733.599	3.62
734.35	4.62
735.101	5.62
735.852	3.62
736.603	4.62
737.354	3.62
738.104	2.62
738.855	6.62
739.605	5.62
740.356	4.62
741.106	4.62
741.856	5.62
742.607	3.62
743.357	5.62
744.107	6.62
744.857	3.62
745.607	4.62
746.357	5.62
747.106	7.62
747.856	6.62
748.606	4.62
749.355	3.62
750.105	2.62
750.854	5.62
751.603	4.62
752.353	5.62
753.102	4.62
753.851	7.62
754.6	6.62
755.349	6.62
756.098	6.62
756.847	7.62
757.595	3.62
758.344	4.62
759.093	6.62
759.841	5.62
760.589	7.62
761.338	6.62
762.086	5.62
762.834	7.62
763.582	6.62
764.331	7.62
765.079	6.62
765.826	6.62
766.574	5.62
767.322	7.62
768.07	6.62
768.817	7.62
769.565	7.62
770.312	6.62
771.06	7.62
771.807	5.62
772.554	6.62
773.302	6.62
774.049	9.62
774.796	8.62
775.543	8.62
776.29	6.62
777.036	5.62
777.783	8.62
778.53	6.62
779.276	7.62
780.023	9.62
780.769	10.62
781.516	7.62
782.262	8.62
783.008	8.62
783.754	5.62
784.5	8.62
785.246	7.62
785.992	9.62
786.738	10.62
787.484	10.62
788.23	7.62
788.975	6.62
789.721	8.62
790.466	6.62
791.212	11.62
791.957	8.62
792.702	9.62
793.447	10.62
794.193	7.62
794.938	7.62
795.683	7.62
796.427	5.62
797.172	6.62
797.917	7.62
798.662	8.62
799.406	5.62
800.151	9.62
800.895	7.62
801.64	7.62
802.384	8.62
803.128	7.62
803.872	8.62
804.616	5.62
805.36	5.62
806.104	8.62
806.848	4.62
807.592	8.62
808.336	7.62
809.079	6.62
809.823	4.62
810.566	8.62
811.31	4.62
812.053	2.62
812.796	7.62
813.539	7.62
814.283	7.62
815.026	6.62
815.769	4.62
816.511	7.62
817.254	5.62
817.997	6.62
818.74	5.62
819.482	5.62
820.225	5.62
820.967	4.62
821.71	3.62
822.452	2.62
823.194	3.62
823.936	5.62
824.678	5.62
825.42	4.62
826.162	3.62
826.904	2.62
827.646	3.62
828.388	4.62
829.129	3.62
829.871	4.62
830.612	3.62
831.354	4.62
832.095	3.62
832.836	3.62
833.577	6.62
834.319	4.62
835.06	2.62
835.801	4.62
836.542	2.62
837.282	2.62
838.023	7.62
838.764	4.62
839.504	4.62
840.245	3.62
840.985	4.62
841.726	3.62
842.466	2.62
843.206	4.62
843.946	2.62
844.687	2.62
845.427	2.62
846.166	0.62
846.906	2.62
847.646	5.62
848.386	2.62
849.125	3.62
849.865	5.62
850.605	4.62
851.344	4.62
852.083	1.62
852.823	4.62
853.562	2.62
854.301	1.62
855.04	0.62
855.779	1.62
856.518	4.62
857.257	2.62
857.995	1.62
858.734	2.62
859.473	4.62
860.211	2.62
860.95	1.62
861.688	1.62
862.426	1.62
863.165	3.62
863.903	3.62
864.641	2.62
865.379	2.62
866.117	-0.38
866.855	2.62
867.593	3.62
868.33	1.62
869.068	0.62
869.806	1.62
870.543	4.62
871.28	2.62
872.018	2.62
872.755	2.62
873.492	2.62
874.229	3.62
874.967	2.62
875.703	1.62
876.44	2.62
877.177	1.62
877.914	2.62
878.651	2.62
879.387	1.62
880.124	1.62
880.86	2.62
881.597	1.62
882.333	4.62
883.069	1.62
883.806	0.62
884.542	2.62
885.278	-2.38
886.014	0.62
886.749	2.62
887.485	-1.38
888.221	-0.38
888.957	0.62
889.692	0.62
890.428	-0.38
891.163	2.62
891.899	1.62
892.634	1.62
893.369	1.62
894.104	-0.38
894.839	3.62
895.574	1.62
896.309	2.62
897.044	2.62
897.779	1.62
898.514	3.62
899.248	-0.38
899.983	2.62
900.717	3.62
901.452	3.62
902.186	2.62
902.92	0.62
903.654	0.62
904.389	-0.38
905.123	1.62
905.857	3.62
906.59	2.62
907.324	0.62
908.058	0.62
908.792	0.62
909.525	-0.38
910.259	0.62
910.992	0.62
911.726	1.62
912.459	0.62
913.192	0.62
913.925	0.62
914.658	2.62
915.391	1.62
916.124	2.62
916.857	1.62
917.59	1.62
918.323	-1.38
919.055	1.62
919.788	-0.38
920.521	-1.38
921.253	-0.38
921.985	0.62
922.718	1.62
923.45	-1.38
924.182	2.62
924.914	-0.38
925.646	2.62
926.378	-0.38
927.11	0.62
927.841	-0.38
928.573	1.62
929.305	2.62
930.036	2.62
930.768	1.62
931.499	-0.38
932.23	-0.38
932.962	1.62
933.693	-0.38
934.424	1.62
935.155	0.62
935.886	-0.38
936.617	1.62
937.348	1.62
938.078	0.62
938.809	-0.38
939.54	0.62
940.27	-1.38
941.001	-0.38
941.731	3.62
942.461	0.62
943.191	2.62
943.922	0.62
944.652	2.62
945.382	1.62
946.112	-0.38
946.841	3.62
947.571	0.62
948.301	0.62
949.031	2.62
949.76	-0.38
950.49	1.62
951.219	1.62
951.948	0.62
952.678	1.62
953.407	0.62
954.136	-1.38
954.865	2.62
955.594	1.62
956.323	0.62
957.052	1.62
957.78	-1.38
958.509	0.62
959.238	1.62
959.966	-0.38
960.695	0.62
961.423	0.62
962.151	-0.38
962.88	-1.38
963.608	0.62
964.336	1.62
965.064	-0.38
965.792	2.62
966.52	-1.38
967.247	0.62
967.975	1.62
968.703	0.62
969.43	1.62
970.158	1.62
970.885	0.62
971.613	0.62
972.34	1.62
973.067	0.62
973.794	3.62
974.521	0.62
975.248	-1.38
975.975	-0.38
976.702	-0.38
977.429	-0.38
978.156	0.62
978.882	1.62
979.609	2.62
980.335	0.62
981.062	0.62
981.788	0.62
982.514	1.62
983.24	2.62
983.967	-0.38
984.693	0.62
985.419	0.62
986.144	1.62
986.87	1.62
987.596	0.62
988.322	1.62
989.047	2.62
989.773	0.62
990.498	1.62
991.224	0.62
991.949	-0.38
992.674	-0.38
993.399	0.62
994.124	0.62
994.849	0.62
995.574	1.62
996.299	1.62
997.024	0.62
997.749	-0.38
998.473	0.62
999.198	-1.38
999.922	1.62
1000.647	0.62
1001.371	3.62
1002.095	-1.38
1002.82	-2.38
1003.544	-0.38
1004.268	0.62
1004.992	1.62
1005.716	1.62
1006.439	1.62
1007.163	1.62
1007.887	0.62
1008.611	-0.38
1009.334	2.62
1010.058	-1.38
1010.781	3.62
1011.504	2.62
1012.228	0.62
1012.951	3.62
1013.674	-0.38
1014.397	-1.38
1015.12	-1.38
