节点500_565_QEPB04081__180__09-53-24-906.txt的数据

Date: Thu Nov 13 09:53:24 CST 2025
User: PC
Spectrometer: QEPB0408
触发模式: 0
积分时间 (秒): 1.000000E-2
Scans to average: 1
启用暗噪声校正: true
启用非线性校正: false
滑动平均宽度: 0
X轴模式: Wavelengths
Number of Pixels in Spectrum: 1044
>>>>>Begin Spectral Data<<<<<
220.843	4.5
221.644	4.5
222.444	2.5
223.244	4.5
224.045	0.5
224.845	4.5
225.645	3.5
226.445	5.5
227.245	5.5
228.045	3.5
228.845	8.5
229.645	3.5
230.444	7.5
231.244	7.5
232.043	7.5
232.843	8.5
233.642	5.5
234.442	9.5
235.241	7.5
236.04	8.5
236.839	8.5
237.638	8.5
238.437	11.5
239.236	6.5
240.035	9.5
240.833	7.5
241.632	10.5
242.43	11.5
243.229	8.5
244.027	11.5
244.826	10.5
245.624	11.5
246.422	13.5
247.22	12.5
248.018	12.5
248.816	13.5
249.614	9.5
250.412	12.5
251.21	12.5
252.007	9.5
252.805	14.5
253.602	15.5
254.4	15.5
255.197	16.5
255.994	16.5
256.791	16.5
257.589	16.5
258.386	16.5
259.183	16.5
259.979	18.5
260.776	18.5
261.573	18.5
262.37	21.5
263.166	20.5
263.963	22.5
264.759	21.5
265.556	24.5
266.352	24.5
267.148	22.5
267.944	25.5
268.74	24.5
269.536	25.5
270.332	25.5
271.128	28.5
271.924	28.5
272.719	28.5
273.515	25.5
274.311	25.5
275.106	27.5
275.901	28.5
276.697	27.5
277.492	30.5
278.287	29.5
279.082	30.5
279.877	30.5
280.672	32.5
281.467	28.5
282.262	32.5
283.056	29.5
283.851	32.5
284.646	31.5
285.44	27.5
286.234	29.5
287.029	28.5
287.823	29.5
288.617	30.5
289.411	30.5
290.205	28.5
290.999	26.5
291.793	30.5
292.587	25.5
293.381	28.5
294.174	25.5
294.968	26.5
295.761	25.5
296.555	18.5
297.348	24.5
298.141	22.5
298.935	25.5
299.728	22.5
300.521	25.5
301.314	20.5
302.107	21.5
302.899	20.5
303.692	19.5
304.485	20.5
305.277	18.5
306.07	19.5
306.862	16.5
307.655	15.5
308.447	16.5
309.239	18.5
310.031	19.5
310.823	16.5
311.615	13.5
312.407	14.5
313.199	15.5
313.991	13.5
314.783	14.5
315.574	13.5
316.366	13.5
317.157	13.5
317.949	13.5
318.74	13.5
319.531	14.5
320.322	12.5
321.113	11.5
321.904	10.5
322.695	13.5
323.486	14.5
324.277	12.5
325.068	10.5
325.858	9.5
326.649	13.5
327.439	9.5
328.23	10.5
329.02	10.5
329.81	7.5
330.6	12.5
331.391	8.5
332.181	9.5
332.971	10.5
333.76	10.5
334.55	9.5
335.34	11.5
336.13	9.5
336.919	10.5
337.709	9.5
338.498	7.5
339.287	10.5
340.077	11.5
340.866	8.5
341.655	11.5
342.444	11.5
343.233	6.5
344.022	11.5
344.811	10.5
345.6	9.5
346.388	10.5
347.177	8.5
347.965	8.5
348.754	9.5
349.542	9.5
350.33	12.5
351.119	8.5
351.907	10.5
352.695	7.5
353.483	9.5
354.271	10.5
355.059	9.5
355.846	8.5
356.634	6.5
357.422	8.5
358.209	9.5
358.997	10.5
359.784	8.5
360.571	8.5
361.359	8.5
362.146	8.5
362.933	7.5
363.72	9.5
364.507	9.5
365.294	8.5
366.081	8.5
366.867	7.5
367.654	6.5
368.44	10.5
369.227	7.5
370.013	6.5
370.8	6.5
371.586	5.5
372.372	8.5
373.158	8.5
373.944	8.5
374.73	8.5
375.516	8.5
376.302	9.5
377.088	8.5
377.873	9.5
378.659	7.5
379.445	11.5
380.23	5.5
381.015	7.5
381.801	9.5
382.586	8.5
383.371	9.5
384.156	12.5
384.941	8.5
385.726	7.5
386.511	8.5
387.296	10.5
388.08	10.5
388.865	10.5
389.649	7.5
390.434	10.5
391.218	7.5
392.003	10.5
392.787	11.5
393.571	10.5
394.355	10.5
395.139	8.5
395.923	14.5
396.707	12.5
397.491	10.5
398.274	12.5
399.058	10.5
399.842	10.5
400.625	12.5
401.408	12.5
402.192	14.5
402.975	14.5
403.758	12.5
404.541	11.5
405.324	13.5
406.107	12.5
406.89	12.5
407.673	12.5
408.456	14.5
409.238	11.5
410.021	14.5
410.803	15.5
411.586	16.5
412.368	13.5
413.151	14.5
413.933	13.5
414.715	17.5
415.497	13.5
416.279	16.5
417.061	16.5
417.843	16.5
418.624	17.5
419.406	15.5
420.188	18.5
420.969	16.5
421.751	20.5
422.532	18.5
423.313	20.5
424.095	19.5
424.876	19.5
425.657	20.5
426.438	18.5
427.219	24.5
428	21.5
428.78	23.5
429.561	23.5
430.342	22.5
431.122	25.5
431.903	25.5
432.683	29.5
433.464	28.5
434.244	28.5
435.024	29.5
435.804	33.5
436.584	31.5
437.364	33.5
438.144	37.5
438.924	37.5
439.704	41.5
440.483	43.5
441.263	49.5
442.042	48.5
442.822	51.5
443.601	55.5
444.38	60.5
445.16	64.5
445.939	71.5
446.718	75.5
447.497	82.5
448.276	89.5
449.054	97.5
449.833	104.5
450.612	119.5
451.391	124.5
452.169	142.5
452.948	159.5
453.726	170.5
454.504	189.5
455.282	206.5
456.061	228.5
456.839	259.5
457.617	293.5
458.395	316.5
459.172	364.5
459.95	406.5
460.728	445.5
461.506	500.5
462.283	570.5
463.061	628.5
463.838	704.5
464.615	776.5
465.393	865.5
466.17	980.5
466.947	1090.5
467.724	1208.5
468.501	1347.5
469.278	1508.5
470.055	1661.5
470.831	1848.5
471.608	2047.5
472.385	2272.5
473.161	2502.5
473.938	2776.5
474.714	3074.5
475.49	3377.5
476.266	3738.5
477.043	4124.5
477.819	4534.5
478.595	4932.5
479.371	5423.5
480.146	5975.5
480.922	6555.5
481.698	7163.5
482.473	7860.5
483.249	8558.5
484.024	9340.5
484.8	10221.5
485.575	11159.5
486.35	12135.5
487.126	13222.5
487.901	14372.5
488.676	15585.5
489.451	16976.5
490.225	18328.5
491	19777.5
491.775	21332.5
492.55	22832.5
493.324	24443.5
494.099	26096.5
494.873	27832.5
495.647	29706.5
496.422	31394.5
497.196	32948.5
497.97	34603.5
498.744	36135.5
499.518	37469.5
500.292	38776.5
501.066	39926.5
501.839	40970.5
502.613	41736.5
503.387	42283.5
504.16	42756.5
504.934	42821.5
505.707	42754.5
506.48	42423.5
507.253	42013.5
508.027	41254.5
508.8	40252.5
509.573	39281.5
510.346	38112.5
511.118	36866.5
511.891	35735.5
512.664	34471.5
513.437	33160.5
514.209	31654.5
514.982	30486.5
515.754	29174.5
516.526	27927.5
517.298	26727.5
518.071	25568.5
518.843	24611.5
519.615	23647.5
520.387	22687.5
521.159	21796.5
521.93	20961.5
522.702	19952.5
523.474	19235.5
524.245	18406.5
525.017	17648.5
525.788	16845.5
526.56	16048.5
527.331	15320.5
528.102	14577.5
528.873	13871.5
529.644	13182.5
530.415	12502.5
531.186	11813.5
531.957	11257.5
532.728	10657.5
533.498	10086.5
534.269	9533.5
535.039	8987.5
535.81	8509.5
536.58	8060.5
537.351	7634.5
538.121	7206.5
538.891	6821.5
539.661	6465.5
540.431	6126.5
541.201	5760.5
541.971	5496.5
542.741	5194.5
543.51	4923.5
544.28	4653.5
545.05	4440.5
545.819	4228.5
546.588	4029.5
547.358	3829.5
548.127	3615.5
548.896	3446.5
549.665	3289.5
550.434	3114.5
551.203	2961.5
551.972	2762.5
552.741	2652.5
553.51	2487.5
554.278	2339.5
555.047	2193.5
555.815	2100.5
556.584	1988.5
557.352	1867.5
558.121	1759.5
558.889	1649.5
559.657	1553.5
560.425	1480.5
561.193	1396.5
561.961	1316.5
562.729	1248.5
563.496	1189.5
564.264	1130.5
565.032	1074.5
565.799	1010.5
566.567	960.5
567.334	903.5
568.101	848.5
568.869	801.5
569.636	760.5
570.403	717.5
571.17	685.5
571.937	635.5
572.704	607.5
573.471	566.5
574.237	533.5
575.004	503.5
575.771	484.5
576.537	451.5
577.303	422.5
578.07	395.5
578.836	373.5
579.602	361.5
580.368	339.5
581.134	323.5
581.9	302.5
582.666	284.5
583.432	274.5
584.198	259.5
584.964	247.5
585.729	228.5
586.495	218.5
587.26	210.5
588.025	204.5
588.791	190.5
589.556	174.5
590.321	167.5
591.086	165.5
591.851	156.5
592.616	146.5
593.381	139.5
594.146	130.5
594.911	130.5
595.675	125.5
596.44	115.5
597.204	114.5
597.969	108.5
598.733	101.5
599.497	95.5
600.261	91.5
601.025	92.5
601.79	84.5
602.553	86.5
603.317	77.5
604.081	78.5
604.845	71.5
605.609	69.5
606.372	63.5
607.136	64.5
607.899	61.5
608.662	57.5
609.426	58.5
610.189	53.5
610.952	54.5
611.715	49.5
612.478	47.5
613.241	43.5
614.004	45.5
614.767	42.5
615.529	44.5
616.292	43.5
617.055	42.5
617.817	38.5
618.579	36.5
619.342	32.5
620.104	35.5
620.866	32.5
621.628	29.5
622.39	28.5
623.152	27.5
623.914	28.5
624.676	28.5
625.438	28.5
626.199	28.5
626.961	25.5
627.722	26.5
628.484	24.5
629.245	21.5
630.006	23.5
630.768	21.5
631.529	20.5
632.29	19.5
633.051	21.5
633.812	20.5
634.573	18.5
635.333	16.5
636.094	18.5
636.855	18.5
637.615	20.5
638.376	17.5
639.136	14.5
639.896	17.5
640.657	15.5
641.417	15.5
642.177	15.5
642.937	17.5
643.697	14.5
644.457	14.5
645.216	15.5
645.976	10.5
646.736	14.5
647.495	11.5
648.255	15.5
649.014	14.5
649.774	11.5
650.533	11.5
651.292	9.5
652.051	12.5
652.81	10.5
653.569	12.5
654.328	9.5
655.087	11.5
655.846	9.5
656.604	11.5
657.363	9.5
658.121	8.5
658.88	10.5
659.638	11.5
660.397	8.5
661.155	8.5
661.913	8.5
662.671	9.5
663.429	7.5
664.187	10.5
664.945	8.5
665.703	8.5
666.46	8.5
667.218	9.5
667.976	10.5
668.733	9.5
669.49	8.5
670.248	9.5
671.005	7.5
671.762	7.5
672.519	7.5
673.276	8.5
674.033	8.5
674.79	8.5
675.547	8.5
676.304	6.5
677.06	8.5
677.817	7.5
678.574	9.5
679.33	8.5
680.086	6.5
680.843	5.5
681.599	8.5
682.355	9.5
683.111	6.5
683.867	8.5
684.623	8.5
685.379	7.5
686.135	6.5
686.89	5.5
687.646	5.5
688.402	6.5
689.157	6.5
689.912	6.5
690.668	6.5
691.423	5.5
692.178	5.5
692.933	8.5
693.688	7.5
694.443	6.5
695.198	4.5
695.953	6.5
696.708	7.5
697.462	7.5
698.217	5.5
698.972	4.5
699.726	6.5
700.48	4.5
701.235	6.5
701.989	6.5
702.743	5.5
703.497	11.5
704.251	5.5
705.005	6.5
705.759	5.5
706.513	4.5
707.266	6.5
708.02	6.5
708.774	6.5
709.527	4.5
710.28	6.5
711.034	6.5
711.787	9.5
712.54	7.5
713.293	3.5
714.046	6.5
714.799	5.5
715.552	4.5
716.305	4.5
717.058	7.5
717.81	6.5
718.563	6.5
719.315	5.5
720.068	7.5
720.82	7.5
721.573	5.5
722.325	6.5
723.077	4.5
723.829	7.5
724.581	7.5
725.333	5.5
726.085	6.5
726.836	5.5
727.588	7.5
728.34	6.5
729.091	8.5
729.843	8.5
730.594	5.5
731.346	6.5
732.097	7.5
732.848	5.5
733.599	7.5
734.35	6.5
735.101	7.5
735.852	5.5
736.603	8.5
737.354	8.5
738.104	7.5
738.855	8.5
739.605	6.5
740.356	8.5
741.106	7.5
741.856	9.5
742.607	8.5
743.357	10.5
744.107	7.5
744.857	9.5
745.607	7.5
746.357	10.5
747.106	12.5
747.856	7.5
748.606	10.5
749.355	6.5
750.105	9.5
750.854	10.5
751.603	9.5
752.353	7.5
753.102	9.5
753.851	10.5
754.6	8.5
755.349	10.5
756.098	7.5
756.847	10.5
757.595	9.5
758.344	8.5
759.093	8.5
759.841	8.5
760.589	11.5
761.338	10.5
762.086	9.5
762.834	9.5
763.582	11.5
764.331	9.5
765.079	11.5
765.826	11.5
766.574	10.5
767.322	12.5
768.07	11.5
768.817	9.5
769.565	11.5
770.312	11.5
771.06	14.5
771.807	10.5
772.554	13.5
773.302	13.5
774.049	13.5
774.796	14.5
775.543	11.5
776.29	12.5
777.036	14.5
777.783	13.5
778.53	13.5
779.276	12.5
780.023	13.5
780.769	14.5
781.516	16.5
782.262	12.5
783.008	13.5
783.754	12.5
784.5	14.5
785.246	12.5
785.992	12.5
786.738	14.5
787.484	17.5
788.23	13.5
788.975	12.5
789.721	15.5
790.466	13.5
791.212	12.5
791.957	15.5
792.702	11.5
793.447	11.5
794.193	12.5
794.938	13.5
795.683	12.5
796.427	12.5
797.172	11.5
797.917	10.5
798.662	12.5
799.406	13.5
800.151	11.5
800.895	11.5
801.64	11.5
802.384	10.5
803.128	10.5
803.872	10.5
804.616	8.5
805.36	9.5
806.104	10.5
806.848	5.5
807.592	11.5
808.336	8.5
809.079	8.5
809.823	9.5
810.566	9.5
811.31	9.5
812.053	4.5
812.796	9.5
813.539	6.5
814.283	5.5
815.026	8.5
815.769	5.5
816.511	8.5
817.254	6.5
817.997	4.5
818.74	6.5
819.482	5.5
820.225	8.5
820.967	6.5
821.71	10.5
822.452	7.5
823.194	5.5
823.936	5.5
824.678	6.5
825.42	6.5
826.162	6.5
826.904	5.5
827.646	5.5
828.388	4.5
829.129	5.5
829.871	6.5
830.612	4.5
831.354	4.5
832.095	6.5
832.836	4.5
833.577	4.5
834.319	4.5
835.06	7.5
835.801	6.5
836.542	4.5
837.282	4.5
838.023	6.5
838.764	6.5
839.504	7.5
840.245	4.5
840.985	3.5
841.726	5.5
842.466	4.5
843.206	5.5
843.946	6.5
844.687	4.5
845.427	3.5
846.166	6.5
846.906	4.5
847.646	5.5
848.386	4.5
849.125	6.5
849.865	6.5
850.605	4.5
851.344	5.5
852.083	0.5
852.823	4.5
853.562	5.5
854.301	5.5
855.04	4.5
855.779	4.5
856.518	4.5
857.257	1.5
857.995	5.5
858.734	4.5
859.473	7.5
860.211	3.5
860.95	2.5
861.688	4.5
862.426	2.5
863.165	3.5
863.903	1.5
864.641	4.5
865.379	2.5
866.117	0.5
866.855	2.5
867.593	1.5
868.33	2.5
869.068	2.5
869.806	2.5
870.543	3.5
871.28	1.5
872.018	2.5
872.755	1.5
873.492	4.5
874.229	2.5
874.967	4.5
875.703	-0.5
876.44	0.5
877.177	1.5
877.914	1.5
878.651	3.5
879.387	2.5
880.124	1.5
880.86	2.5
881.597	0.5
882.333	0.5
883.069	3.5
883.806	0.5
884.542	1.5
885.278	3.5
886.014	2.5
886.749	-0.5
887.485	2.5
888.221	0.5
888.957	1.5
889.692	-0.5
890.428	2.5
891.163	0.5
891.899	1.5
892.634	0.5
893.369	0.5
894.104	-0.5
894.839	0.5
895.574	3.5
896.309	1.5
897.044	1.5
897.779	0.5
898.514	2.5
899.248	2.5
899.983	0.5
900.717	0.5
901.452	1.5
902.186	1.5
902.92	1.5
903.654	0.5
904.389	-0.5
905.123	0.5
905.857	1.5
906.59	1.5
907.324	2.5
908.058	1.5
908.792	1.5
909.525	2.5
910.259	0.5
910.992	-0.5
911.726	0.5
912.459	2.5
913.192	0.5
913.925	0.5
914.658	-0.5
915.391	1.5
916.124	1.5
916.857	-1.5
917.59	2.5
918.323	0.5
919.055	1.5
919.788	0.5
920.521	-0.5
921.253	1.5
921.985	-1.5
922.718	1.5
923.45	0.5
924.182	0.5
924.914	0.5
925.646	-0.5
926.378	-1.5
927.11	1.5
927.841	-0.5
928.573	-0.5
929.305	1.5
930.036	0.5
930.768	1.5
931.499	2.5
932.23	0.5
932.962	1.5
933.693	1.5
934.424	1.5
935.155	-0.5
935.886	0.5
936.617	1.5
937.348	-1.5
938.078	2.5
938.809	-2.5
939.54	-0.5
940.27	0.5
941.001	-1.5
941.731	1.5
942.461	1.5
943.191	1.5
943.922	0.5
944.652	1.5
945.382	0.5
946.112	-0.5
946.841	1.5
947.571	-0.5
948.301	2.5
949.031	0.5
949.76	0.5
950.49	-1.5
951.219	1.5
951.948	0.5
952.678	0.5
953.407	2.5
954.136	-1.5
954.865	-0.5
955.594	0.5
956.323	-1.5
957.052	0.5
957.78	-1.5
958.509	1.5
959.238	0.5
959.966	2.5
960.695	0.5
961.423	-0.5
962.151	0.5
962.88	-0.5
963.608	-0.5
964.336	2.5
965.064	-0.5
965.792	1.5
966.52	1.5
967.247	1.5
967.975	1.5
968.703	-0.5
969.43	0.5
970.158	0.5
970.885	1.5
971.613	0.5
972.34	1.5
973.067	0.5
973.794	1.5
974.521	-0.5
975.248	2.5
975.975	0.5
976.702	-1.5
977.429	1.5
978.156	-0.5
978.882	-0.5
979.609	0.5
980.335	0.5
981.062	-0.5
981.788	0.5
982.514	1.5
983.24	-0.5
983.967	2.5
984.693	0.5
985.419	1.5
986.144	1.5
986.87	-0.5
987.596	1.5
988.322	1.5
989.047	1.5
989.773	-0.5
990.498	-0.5
991.224	-0.5
991.949	0.5
992.674	0.5
993.399	0.5
994.124	0.5
994.849	-1.5
995.574	1.5
996.299	0.5
997.024	0.5
997.749	-0.5
998.473	0.5
999.198	0.5
999.922	0.5
1000.647	0.5
1001.371	2.5
1002.095	-0.5
1002.82	-1.5
1003.544	-1.5
1004.268	4.5
1004.992	5.5
1005.716	1.5
1006.439	1.5
1007.163	2.5
1007.887	5.5
1008.611	1.5
1009.334	1.5
1010.058	-2.5
1010.781	0.5
1011.504	-0.5
1012.228	-1.5
1012.951	-0.5
1013.674	0.5
1014.397	0.5
1015.12	0.5
