节点500_565_QEPB04081__216__09-54-00-797.txt的数据

Date: Thu Nov 13 09:54:00 CST 2025
User: PC
Spectrometer: QEPB0408
触发模式: 0
积分时间 (秒): 1.000000E-2
Scans to average: 1
启用暗噪声校正: true
启用非线性校正: false
滑动平均宽度: 0
X轴模式: Wavelengths
Number of Pixels in Spectrum: 1044
>>>>>Begin Spectral Data<<<<<
220.843	4.38
221.644	5.38
222.444	5.38
223.244	3.38
224.045	6.38
224.845	5.38
225.645	5.38
226.445	6.38
227.245	7.38
228.045	9.38
228.845	3.38
229.645	7.38
230.444	6.38
231.244	7.38
232.043	5.38
232.843	7.38
233.642	8.38
234.442	7.38
235.241	10.38
236.04	7.38
236.839	11.38
237.638	11.38
238.437	9.38
239.236	9.38
240.035	8.38
240.833	9.38
241.632	8.38
242.43	13.38
243.229	12.38
244.027	10.38
244.826	9.38
245.624	11.38
246.422	11.38
247.22	11.38
248.018	12.38
248.816	12.38
249.614	12.38
250.412	11.38
251.21	10.38
252.007	15.38
252.805	12.38
253.602	16.38
254.4	15.38
255.197	15.38
255.994	14.38
256.791	14.38
257.589	19.38
258.386	18.38
259.183	19.38
259.979	17.38
260.776	18.38
261.573	20.38
262.37	18.38
263.166	23.38
263.963	21.38
264.759	22.38
265.556	22.38
266.352	23.38
267.148	25.38
267.944	25.38
268.74	23.38
269.536	27.38
270.332	26.38
271.128	24.38
271.924	28.38
272.719	30.38
273.515	27.38
274.311	26.38
275.106	29.38
275.901	30.38
276.697	30.38
277.492	29.38
278.287	31.38
279.082	31.38
279.877	31.38
280.672	29.38
281.467	32.38
282.262	27.38
283.056	30.38
283.851	27.38
284.646	31.38
285.44	31.38
286.234	29.38
287.029	29.38
287.823	32.38
288.617	29.38
289.411	29.38
290.205	25.38
290.999	28.38
291.793	29.38
292.587	28.38
293.381	26.38
294.174	26.38
294.968	27.38
295.761	26.38
296.555	30.38
297.348	19.38
298.141	24.38
298.935	23.38
299.728	25.38
300.521	24.38
301.314	22.38
302.107	23.38
302.899	16.38
303.692	20.38
304.485	21.38
305.277	19.38
306.07	18.38
306.862	21.38
307.655	18.38
308.447	19.38
309.239	17.38
310.031	18.38
310.823	16.38
311.615	15.38
312.407	16.38
313.199	15.38
313.991	14.38
314.783	14.38
315.574	16.38
316.366	13.38
317.157	10.38
317.949	14.38
318.74	15.38
319.531	13.38
320.322	12.38
321.113	13.38
321.904	12.38
322.695	14.38
323.486	11.38
324.277	11.38
325.068	13.38
325.858	12.38
326.649	10.38
327.439	11.38
328.23	13.38
329.02	11.38
329.81	12.38
330.6	9.38
331.391	11.38
332.181	8.38
332.971	12.38
333.76	10.38
334.55	11.38
335.34	11.38
336.13	11.38
336.919	10.38
337.709	11.38
338.498	10.38
339.287	9.38
340.077	11.38
340.866	12.38
341.655	9.38
342.444	12.38
343.233	10.38
344.022	11.38
344.811	9.38
345.6	8.38
346.388	9.38
347.177	11.38
347.965	11.38
348.754	10.38
349.542	9.38
350.33	6.38
351.119	12.38
351.907	10.38
352.695	8.38
353.483	11.38
354.271	9.38
355.059	11.38
355.846	10.38
356.634	8.38
357.422	11.38
358.209	8.38
358.997	10.38
359.784	10.38
360.571	9.38
361.359	9.38
362.146	9.38
362.933	9.38
363.72	9.38
364.507	7.38
365.294	10.38
366.081	10.38
366.867	9.38
367.654	9.38
368.44	11.38
369.227	9.38
370.013	10.38
370.8	7.38
371.586	9.38
372.372	9.38
373.158	8.38
373.944	8.38
374.73	9.38
375.516	9.38
376.302	9.38
377.088	8.38
377.873	7.38
378.659	10.38
379.445	10.38
380.23	7.38
381.015	12.38
381.801	7.38
382.586	10.38
383.371	8.38
384.156	10.38
384.941	10.38
385.726	8.38
386.511	13.38
387.296	10.38
388.08	9.38
388.865	10.38
389.649	10.38
390.434	8.38
391.218	8.38
392.003	10.38
392.787	8.38
393.571	11.38
394.355	12.38
395.139	10.38
395.923	11.38
396.707	11.38
397.491	13.38
398.274	12.38
399.058	13.38
399.842	9.38
400.625	11.38
401.408	14.38
402.192	12.38
402.975	13.38
403.758	13.38
404.541	14.38
405.324	13.38
406.107	13.38
406.89	13.38
407.673	13.38
408.456	15.38
409.238	16.38
410.021	14.38
410.803	14.38
411.586	16.38
412.368	15.38
413.151	13.38
413.933	19.38
414.715	16.38
415.497	17.38
416.279	19.38
417.061	17.38
417.843	16.38
418.624	18.38
419.406	16.38
420.188	19.38
420.969	15.38
421.751	17.38
422.532	21.38
423.313	21.38
424.095	20.38
424.876	23.38
425.657	21.38
426.438	21.38
427.219	22.38
428	21.38
428.78	23.38
429.561	23.38
430.342	23.38
431.122	25.38
431.903	28.38
432.683	28.38
433.464	27.38
434.244	34.38
435.024	31.38
435.804	34.38
436.584	35.38
437.364	38.38
438.144	37.38
438.924	42.38
439.704	42.38
440.483	42.38
441.263	47.38
442.042	48.38
442.822	53.38
443.601	58.38
444.38	61.38
445.16	63.38
445.939	74.38
446.718	78.38
447.497	83.38
448.276	91.38
449.054	97.38
449.833	108.38
450.612	119.38
451.391	131.38
452.169	143.38
452.948	161.38
453.726	169.38
454.504	187.38
455.282	217.38
456.061	232.38
456.839	263.38
457.617	299.38
458.395	330.38
459.172	369.38
459.95	403.38
460.728	460.38
461.506	515.38
462.283	570.38
463.061	637.38
463.838	701.38
464.615	787.38
465.393	880.38
466.17	974.38
466.947	1091.38
467.724	1218.38
468.501	1351.38
469.278	1491.38
470.055	1671.38
470.831	1847.38
471.608	2077.38
472.385	2279.38
473.161	2498.38
473.938	2793.38
474.714	3066.38
475.49	3389.38
476.266	3715.38
477.043	4113.38
477.819	4519.38
478.595	4943.38
479.371	5401.38
480.146	5938.38
480.922	6507.38
481.698	7128.38
482.473	7806.38
483.249	8522.38
484.024	9291.38
484.8	10133.38
485.575	11077.38
486.35	11993.38
487.126	13105.38
487.901	14254.38
488.676	15397.38
489.451	16750.38
490.225	18141.38
491	19526.38
491.775	21015.38
492.55	22602.38
493.324	24157.38
494.099	25789.38
494.873	27466.38
495.647	29160.38
496.422	30949.38
497.196	32498.38
497.97	34164.38
498.744	35629.38
499.518	37015.38
500.292	38365.38
501.066	39493.38
501.839	40527.38
502.613	41215.38
503.387	41845.38
504.16	42388.38
504.934	42507.38
505.707	42492.38
506.48	42166.38
507.253	41789.38
508.027	40984.38
508.8	40191.38
509.573	39174.38
510.346	38121.38
511.118	36851.38
511.891	35772.38
512.664	34456.38
513.437	33138.38
514.209	31782.38
514.982	30519.38
515.754	29221.38
516.526	28025.38
517.298	26841.38
518.071	25784.38
518.843	24701.38
519.615	23659.38
520.387	22712.38
521.159	21871.38
521.93	20995.38
522.702	20115.38
523.474	19255.38
524.245	18560.38
525.017	17741.38
525.788	16936.38
526.56	16121.38
527.331	15380.38
528.102	14675.38
528.873	13936.38
529.644	13231.38
530.415	12581.38
531.186	11903.38
531.957	11328.38
532.728	10769.38
533.498	10182.38
534.269	9575.38
535.039	9056.38
535.81	8566.38
536.58	8163.38
537.351	7666.38
538.121	7269.38
538.891	6831.38
539.661	6538.38
540.431	6187.38
541.201	5844.38
541.971	5562.38
542.741	5251.38
543.51	4963.38
544.28	4700.38
545.05	4485.38
545.819	4298.38
546.588	4056.38
547.358	3858.38
548.127	3675.38
548.896	3471.38
549.665	3300.38
550.434	3125.38
551.203	2955.38
551.972	2796.38
552.741	2681.38
553.51	2494.38
554.278	2359.38
555.047	2245.38
555.815	2102.38
556.584	1999.38
557.352	1895.38
558.121	1785.38
558.889	1675.38
559.657	1572.38
560.425	1511.38
561.193	1408.38
561.961	1352.38
562.729	1284.38
563.496	1203.38
564.264	1145.38
565.032	1069.38
565.799	1020.38
566.567	969.38
567.334	906.38
568.101	862.38
568.869	803.38
569.636	776.38
570.403	723.38
571.17	689.38
571.937	654.38
572.704	611.38
573.471	578.38
574.237	541.38
575.004	508.38
575.771	480.38
576.537	451.38
577.303	423.38
578.07	410.38
578.836	382.38
579.602	368.38
580.368	340.38
581.134	326.38
581.9	306.38
582.666	284.38
583.432	279.38
584.198	264.38
584.964	251.38
585.729	231.38
586.495	223.38
587.26	214.38
588.025	202.38
588.791	199.38
589.556	181.38
590.321	173.38
591.086	167.38
591.851	159.38
592.616	148.38
593.381	142.38
594.146	135.38
594.911	125.38
595.675	121.38
596.44	119.38
597.204	114.38
597.969	105.38
598.733	102.38
599.497	101.38
600.261	88.38
601.025	92.38
601.79	90.38
602.553	82.38
603.317	81.38
604.081	74.38
604.845	74.38
605.609	70.38
606.372	65.38
607.136	65.38
607.899	61.38
608.662	62.38
609.426	57.38
610.189	53.38
610.952	52.38
611.715	51.38
612.478	51.38
613.241	46.38
614.004	45.38
614.767	47.38
615.529	44.38
616.292	41.38
617.055	39.38
617.817	40.38
618.579	35.38
619.342	41.38
620.104	35.38
620.866	37.38
621.628	33.38
622.39	34.38
623.152	29.38
623.914	30.38
624.676	28.38
625.438	29.38
626.199	30.38
626.961	27.38
627.722	26.38
628.484	26.38
629.245	24.38
630.006	23.38
630.768	22.38
631.529	24.38
632.29	22.38
633.051	22.38
633.812	20.38
634.573	21.38
635.333	18.38
636.094	17.38
636.855	19.38
637.615	20.38
638.376	16.38
639.136	16.38
639.896	14.38
640.657	21.38
641.417	15.38
642.177	18.38
642.937	15.38
643.697	16.38
644.457	16.38
645.216	14.38
645.976	16.38
646.736	13.38
647.495	14.38
648.255	13.38
649.014	17.38
649.774	12.38
650.533	14.38
651.292	12.38
652.051	10.38
652.81	11.38
653.569	13.38
654.328	12.38
655.087	10.38
655.846	11.38
656.604	9.38
657.363	8.38
658.121	12.38
658.88	10.38
659.638	10.38
660.397	10.38
661.155	10.38
661.913	7.38
662.671	7.38
663.429	10.38
664.187	5.38
664.945	9.38
665.703	9.38
666.46	9.38
667.218	12.38
667.976	8.38
668.733	9.38
669.49	9.38
670.248	7.38
671.005	8.38
671.762	8.38
672.519	9.38
673.276	9.38
674.033	11.38
674.79	7.38
675.547	10.38
676.304	8.38
677.06	6.38
677.817	8.38
678.574	6.38
679.33	7.38
680.086	7.38
680.843	10.38
681.599	9.38
682.355	8.38
683.111	9.38
683.867	7.38
684.623	5.38
685.379	7.38
686.135	8.38
686.89	9.38
687.646	7.38
688.402	7.38
689.157	8.38
689.912	7.38
690.668	6.38
691.423	7.38
692.178	6.38
692.933	7.38
693.688	7.38
694.443	6.38
695.198	8.38
695.953	7.38
696.708	7.38
697.462	8.38
698.217	5.38
698.972	6.38
699.726	5.38
700.48	8.38
701.235	5.38
701.989	9.38
702.743	7.38
703.497	5.38
704.251	7.38
705.005	8.38
705.759	8.38
706.513	6.38
707.266	7.38
708.02	9.38
708.774	7.38
709.527	7.38
710.28	8.38
711.034	6.38
711.787	5.38
712.54	6.38
713.293	6.38
714.046	6.38
714.799	8.38
715.552	6.38
716.305	7.38
717.058	7.38
717.81	9.38
718.563	7.38
719.315	8.38
720.068	9.38
720.82	7.38
721.573	6.38
722.325	5.38
723.077	8.38
723.829	8.38
724.581	7.38
725.333	7.38
726.085	7.38
726.836	7.38
727.588	6.38
728.34	9.38
729.091	7.38
729.843	7.38
730.594	9.38
731.346	7.38
732.097	8.38
732.848	11.38
733.599	7.38
734.35	8.38
735.101	7.38
735.852	9.38
736.603	9.38
737.354	7.38
738.104	8.38
738.855	9.38
739.605	11.38
740.356	10.38
741.106	9.38
741.856	7.38
742.607	10.38
743.357	8.38
744.107	8.38
744.857	11.38
745.607	11.38
746.357	7.38
747.106	9.38
747.856	9.38
748.606	9.38
749.355	9.38
750.105	10.38
750.854	11.38
751.603	9.38
752.353	6.38
753.102	12.38
753.851	10.38
754.6	10.38
755.349	10.38
756.098	10.38
756.847	12.38
757.595	10.38
758.344	11.38
759.093	10.38
759.841	13.38
760.589	9.38
761.338	11.38
762.086	12.38
762.834	12.38
763.582	12.38
764.331	14.38
765.079	13.38
765.826	10.38
766.574	12.38
767.322	11.38
768.07	15.38
768.817	14.38
769.565	14.38
770.312	13.38
771.06	13.38
771.807	13.38
772.554	12.38
773.302	12.38
774.049	15.38
774.796	13.38
775.543	15.38
776.29	12.38
777.036	15.38
777.783	13.38
778.53	11.38
779.276	16.38
780.023	16.38
780.769	17.38
781.516	15.38
782.262	14.38
783.008	13.38
783.754	16.38
784.5	14.38
785.246	14.38
785.992	13.38
786.738	14.38
787.484	13.38
788.23	12.38
788.975	16.38
789.721	14.38
790.466	13.38
791.212	14.38
791.957	14.38
792.702	14.38
793.447	15.38
794.193	13.38
794.938	15.38
795.683	13.38
796.427	11.38
797.172	13.38
797.917	13.38
798.662	12.38
799.406	11.38
800.151	12.38
800.895	10.38
801.64	12.38
802.384	12.38
803.128	9.38
803.872	10.38
804.616	8.38
805.36	13.38
806.104	10.38
806.848	10.38
807.592	10.38
808.336	9.38
809.079	8.38
809.823	9.38
810.566	9.38
811.31	9.38
812.053	9.38
812.796	7.38
813.539	7.38
814.283	8.38
815.026	8.38
815.769	4.38
816.511	7.38
817.254	7.38
817.997	7.38
818.74	5.38
819.482	7.38
820.225	10.38
820.967	6.38
821.71	8.38
822.452	6.38
823.194	4.38
823.936	6.38
824.678	7.38
825.42	7.38
826.162	9.38
826.904	6.38
827.646	7.38
828.388	5.38
829.129	8.38
829.871	3.38
830.612	6.38
831.354	6.38
832.095	4.38
832.836	4.38
833.577	5.38
834.319	4.38
835.06	7.38
835.801	7.38
836.542	6.38
837.282	6.38
838.023	5.38
838.764	7.38
839.504	7.38
840.245	5.38
840.985	6.38
841.726	4.38
842.466	5.38
843.206	4.38
843.946	5.38
844.687	5.38
845.427	5.38
846.166	4.38
846.906	2.38
847.646	2.38
848.386	4.38
849.125	4.38
849.865	5.38
850.605	3.38
851.344	6.38
852.083	4.38
852.823	4.38
853.562	5.38
854.301	5.38
855.04	4.38
855.779	4.38
856.518	3.38
857.257	3.38
857.995	4.38
858.734	5.38
859.473	3.38
860.211	4.38
860.95	3.38
861.688	5.38
862.426	4.38
863.165	4.38
863.903	2.38
864.641	2.38
865.379	1.38
866.117	4.38
866.855	1.38
867.593	2.38
868.33	3.38
869.068	3.38
869.806	5.38
870.543	3.38
871.28	1.38
872.018	4.38
872.755	1.38
873.492	2.38
874.229	1.38
874.967	2.38
875.703	3.38
876.44	1.38
877.177	3.38
877.914	2.38
878.651	2.38
879.387	3.38
880.124	2.38
880.86	3.38
881.597	1.38
882.333	2.38
883.069	3.38
883.806	1.38
884.542	1.38
885.278	2.38
886.014	2.38
886.749	1.38
887.485	1.38
888.221	2.38
888.957	0.38
889.692	3.38
890.428	1.38
891.163	5.38
891.899	-1.62
892.634	2.38
893.369	1.38
894.104	2.38
894.839	1.38
895.574	2.38
896.309	0.38
897.044	4.38
897.779	2.38
898.514	2.38
899.248	2.38
899.983	-0.62
900.717	1.38
901.452	1.38
902.186	-0.62
902.92	2.38
903.654	1.38
904.389	2.38
905.123	-0.62
905.857	3.38
906.59	2.38
907.324	2.38
908.058	0.38
908.792	0.38
909.525	0.38
910.259	2.38
910.992	1.38
911.726	2.38
912.459	0.38
913.192	1.38
913.925	2.38
914.658	2.38
915.391	1.38
916.124	1.38
916.857	0.38
917.59	2.38
918.323	2.38
919.055	-1.62
919.788	3.38
920.521	-0.62
921.253	2.38
921.985	0.38
922.718	3.38
923.45	1.38
924.182	0.38
924.914	1.38
925.646	2.38
926.378	1.38
927.11	0.38
927.841	-1.62
928.573	4.38
929.305	1.38
930.036	3.38
930.768	1.38
931.499	1.38
932.23	0.38
932.962	1.38
933.693	3.38
934.424	0.38
935.155	2.38
935.886	1.38
936.617	2.38
937.348	0.38
938.078	1.38
938.809	0.38
939.54	1.38
940.27	1.38
941.001	1.38
941.731	3.38
942.461	2.38
943.191	-0.62
943.922	1.38
944.652	0.38
945.382	1.38
946.112	3.38
946.841	3.38
947.571	0.38
948.301	3.38
949.031	0.38
949.76	-0.62
950.49	1.38
951.219	2.38
951.948	1.38
952.678	0.38
953.407	-0.62
954.136	4.38
954.865	-0.62
955.594	0.38
956.323	0.38
957.052	1.38
957.78	0.38
958.509	2.38
959.238	2.38
959.966	0.38
960.695	2.38
961.423	1.38
962.151	1.38
962.88	2.38
963.608	-1.62
964.336	1.38
965.064	0.38
965.792	-0.62
966.52	-1.62
967.247	3.38
967.975	0.38
968.703	1.38
969.43	1.38
970.158	-0.62
970.885	0.38
971.613	0.38
972.34	0.38
973.067	1.38
973.794	1.38
974.521	2.38
975.248	1.38
975.975	0.38
976.702	1.38
977.429	2.38
978.156	2.38
978.882	1.38
979.609	1.38
980.335	-0.62
981.062	0.38
981.788	0.38
982.514	2.38
983.24	-0.62
983.967	0.38
984.693	0.38
985.419	-1.62
986.144	1.38
986.87	0.38
987.596	1.38
988.322	1.38
989.047	3.38
989.773	0.38
990.498	2.38
991.224	0.38
991.949	0.38
992.674	2.38
993.399	1.38
994.124	-0.62
994.849	1.38
995.574	1.38
996.299	0.38
997.024	0.38
997.749	0.38
998.473	0.38
999.198	0.38
999.922	1.38
1000.647	2.38
1001.371	5.38
1002.095	-2.62
1002.82	-0.62
1003.544	-0.62
1004.268	3.38
1004.992	5.38
1005.716	3.38
1006.439	5.38
1007.163	5.38
1007.887	6.38
1008.611	0.38
1009.334	-0.62
1010.058	2.38
1010.781	1.38
1011.504	3.38
1012.228	-1.62
1012.951	-1.62
1013.674	0.38
1014.397	-0.62
1015.12	0.38
