节点500_565_QEPB04081__477__09-58-21-189.txt的数据

Date: Thu Nov 13 09:58:21 CST 2025
User: PC
Spectrometer: QEPB0408
触发模式: 0
积分时间 (秒): 1.000000E-2
Scans to average: 1
启用暗噪声校正: true
启用非线性校正: false
滑动平均宽度: 0
X轴模式: Wavelengths
Number of Pixels in Spectrum: 1044
>>>>>Begin Spectral Data<<<<<
220.843	4.25
221.644	3.25
222.444	4.25
223.244	4.25
224.045	4.25
224.845	7.25
225.645	5.25
226.445	5.25
227.245	5.25
228.045	7.25
228.845	5.25
229.645	5.25
230.444	6.25
231.244	4.25
232.043	10.25
232.843	6.25
233.642	7.25
234.442	8.25
235.241	5.25
236.04	7.25
236.839	8.25
237.638	7.25
238.437	7.25
239.236	8.25
240.035	8.25
240.833	7.25
241.632	9.25
242.43	8.25
243.229	8.25
244.027	9.25
244.826	11.25
245.624	10.25
246.422	11.25
247.22	12.25
248.018	11.25
248.816	13.25
249.614	12.25
250.412	13.25
251.21	13.25
252.007	10.25
252.805	13.25
253.602	13.25
254.4	14.25
255.197	15.25
255.994	15.25
256.791	16.25
257.589	15.25
258.386	14.25
259.183	15.25
259.979	16.25
260.776	16.25
261.573	17.25
262.37	19.25
263.166	18.25
263.963	21.25
264.759	19.25
265.556	22.25
266.352	18.25
267.148	25.25
267.944	21.25
268.74	21.25
269.536	24.25
270.332	23.25
271.128	26.25
271.924	23.25
272.719	24.25
273.515	27.25
274.311	26.25
275.106	25.25
275.901	26.25
276.697	25.25
277.492	27.25
278.287	25.25
279.082	27.25
279.877	26.25
280.672	28.25
281.467	28.25
282.262	29.25
283.056	28.25
283.851	29.25
284.646	25.25
285.44	27.25
286.234	26.25
287.029	27.25
287.823	29.25
288.617	25.25
289.411	29.25
290.205	25.25
290.999	24.25
291.793	27.25
292.587	28.25
293.381	27.25
294.174	25.25
294.968	25.25
295.761	24.25
296.555	23.25
297.348	21.25
298.141	23.25
298.935	26.25
299.728	21.25
300.521	21.25
301.314	19.25
302.107	19.25
302.899	19.25
303.692	20.25
304.485	18.25
305.277	16.25
306.07	21.25
306.862	17.25
307.655	19.25
308.447	18.25
309.239	18.25
310.031	17.25
310.823	14.25
311.615	16.25
312.407	15.25
313.199	12.25
313.991	13.25
314.783	15.25
315.574	13.25
316.366	14.25
317.157	17.25
317.949	14.25
318.74	13.25
319.531	13.25
320.322	11.25
321.113	13.25
321.904	10.25
322.695	13.25
323.486	11.25
324.277	14.25
325.068	10.25
325.858	12.25
326.649	14.25
327.439	13.25
328.23	11.25
329.02	10.25
329.81	11.25
330.6	11.25
331.391	11.25
332.181	10.25
332.971	10.25
333.76	8.25
334.55	10.25
335.34	12.25
336.13	9.25
336.919	10.25
337.709	11.25
338.498	10.25
339.287	11.25
340.077	8.25
340.866	8.25
341.655	10.25
342.444	9.25
343.233	9.25
344.022	9.25
344.811	8.25
345.6	9.25
346.388	10.25
347.177	10.25
347.965	10.25
348.754	11.25
349.542	12.25
350.33	9.25
351.119	9.25
351.907	11.25
352.695	8.25
353.483	9.25
354.271	9.25
355.059	6.25
355.846	10.25
356.634	9.25
357.422	10.25
358.209	7.25
358.997	9.25
359.784	7.25
360.571	9.25
361.359	9.25
362.146	10.25
362.933	10.25
363.72	8.25
364.507	7.25
365.294	7.25
366.081	7.25
366.867	9.25
367.654	7.25
368.44	10.25
369.227	8.25
370.013	9.25
370.8	9.25
371.586	8.25
372.372	10.25
373.158	9.25
373.944	7.25
374.73	8.25
375.516	11.25
376.302	8.25
377.088	9.25
377.873	7.25
378.659	7.25
379.445	8.25
380.23	8.25
381.015	7.25
381.801	7.25
382.586	10.25
383.371	9.25
384.156	9.25
384.941	7.25
385.726	7.25
386.511	11.25
387.296	5.25
388.08	8.25
388.865	9.25
389.649	7.25
390.434	12.25
391.218	12.25
392.003	9.25
392.787	11.25
393.571	12.25
394.355	9.25
395.139	9.25
395.923	10.25
396.707	9.25
397.491	9.25
398.274	9.25
399.058	10.25
399.842	11.25
400.625	11.25
401.408	12.25
402.192	11.25
402.975	14.25
403.758	13.25
404.541	10.25
405.324	12.25
406.107	13.25
406.89	9.25
407.673	13.25
408.456	14.25
409.238	11.25
410.021	14.25
410.803	15.25
411.586	14.25
412.368	14.25
413.151	14.25
413.933	14.25
414.715	17.25
415.497	17.25
416.279	13.25
417.061	16.25
417.843	14.25
418.624	15.25
419.406	17.25
420.188	14.25
420.969	17.25
421.751	16.25
422.532	19.25
423.313	17.25
424.095	19.25
424.876	19.25
425.657	21.25
426.438	16.25
427.219	21.25
428	23.25
428.78	23.25
429.561	22.25
430.342	24.25
431.122	25.25
431.903	27.25
432.683	29.25
433.464	29.25
434.244	32.25
435.024	32.25
435.804	33.25
436.584	33.25
437.364	39.25
438.144	37.25
438.924	41.25
439.704	43.25
440.483	44.25
441.263	49.25
442.042	49.25
442.822	56.25
443.601	62.25
444.38	64.25
445.16	70.25
445.939	72.25
446.718	84.25
447.497	86.25
448.276	100.25
449.054	105.25
449.833	113.25
450.612	127.25
451.391	140.25
452.169	157.25
452.948	170.25
453.726	186.25
454.504	211.25
455.282	229.25
456.061	258.25
456.839	283.25
457.617	325.25
458.395	353.25
459.172	395.25
459.95	446.25
460.728	492.25
461.506	538.25
462.283	610.25
463.061	671.25
463.838	756.25
464.615	846.25
465.393	924.25
466.17	1029.25
466.947	1146.25
467.724	1271.25
468.501	1403.25
469.278	1544.25
470.055	1710.25
470.831	1902.25
471.608	2082.25
472.385	2294.25
473.161	2530.25
473.938	2790.25
474.714	3048.25
475.49	3323.25
476.266	3639.25
477.043	3982.25
477.819	4397.25
478.595	4770.25
479.371	5195.25
480.146	5645.25
480.922	6178.25
481.698	6685.25
482.473	7263.25
483.249	7855.25
484.024	8513.25
484.8	9298.25
485.575	10073.25
486.35	10869.25
487.126	11772.25
487.901	12738.25
488.676	13780.25
489.451	14838.25
490.225	16026.25
491	17204.25
491.775	18443.25
492.55	19815.25
493.324	21173.25
494.099	22565.25
494.873	23983.25
495.647	25425.25
496.422	26957.25
497.196	28491.25
497.97	29948.25
498.744	31355.25
499.518	32649.25
500.292	33869.25
501.066	35162.25
501.839	36130.25
502.613	37052.25
503.387	37792.25
504.16	38518.25
504.934	38949.25
505.707	39193.25
506.48	39210.25
507.253	39143.25
508.027	38753.25
508.8	38192.25
509.573	37571.25
510.346	36843.25
511.118	35901.25
511.891	35067.25
512.664	34013.25
513.437	32855.25
514.209	31744.25
514.982	30543.25
515.754	29459.25
516.526	28321.25
517.298	27116.25
518.071	26094.25
518.843	24952.25
519.615	23965.25
520.387	23023.25
521.159	22195.25
521.93	21300.25
522.702	20373.25
523.474	19609.25
524.245	18772.25
525.017	18088.25
525.788	17278.25
526.56	16533.25
527.331	15879.25
528.102	15145.25
528.873	14428.25
529.644	13702.25
530.415	13041.25
531.186	12420.25
531.957	11874.25
532.728	11301.25
533.498	10715.25
534.269	10102.25
535.039	9527.25
535.81	9053.25
536.58	8595.25
537.351	8126.25
538.121	7693.25
538.891	7295.25
539.661	6870.25
540.431	6526.25
541.201	6189.25
541.971	5850.25
542.741	5526.25
543.51	5269.25
544.28	4997.25
545.05	4767.25
545.819	4537.25
546.588	4293.25
547.358	4130.25
548.127	3899.25
548.896	3717.25
549.665	3526.25
550.434	3331.25
551.203	3160.25
551.972	3017.25
552.741	2833.25
553.51	2684.25
554.278	2533.25
555.047	2400.25
555.815	2272.25
556.584	2184.25
557.352	2045.25
558.121	1941.25
558.889	1787.25
559.657	1719.25
560.425	1630.25
561.193	1522.25
561.961	1449.25
562.729	1373.25
563.496	1295.25
564.264	1231.25
565.032	1157.25
565.799	1105.25
566.567	1037.25
567.334	982.25
568.101	931.25
568.869	878.25
569.636	830.25
570.403	786.25
571.17	744.25
571.937	691.25
572.704	656.25
573.471	622.25
574.237	582.25
575.004	560.25
575.771	520.25
576.537	494.25
577.303	458.25
578.07	440.25
578.836	413.25
579.602	388.25
580.368	369.25
581.134	358.25
581.9	329.25
582.666	315.25
583.432	298.25
584.198	285.25
584.964	275.25
585.729	260.25
586.495	241.25
587.26	232.25
588.025	216.25
588.791	210.25
589.556	200.25
590.321	186.25
591.086	177.25
591.851	168.25
592.616	164.25
593.381	154.25
594.146	146.25
594.911	134.25
595.675	132.25
596.44	126.25
597.204	121.25
597.969	117.25
598.733	108.25
599.497	110.25
600.261	103.25
601.025	99.25
601.79	93.25
602.553	91.25
603.317	82.25
604.081	81.25
604.845	79.25
605.609	73.25
606.372	74.25
607.136	65.25
607.899	67.25
608.662	67.25
609.426	58.25
610.189	57.25
610.952	54.25
611.715	59.25
612.478	50.25
613.241	53.25
614.004	48.25
614.767	45.25
615.529	49.25
616.292	44.25
617.055	41.25
617.817	41.25
618.579	40.25
619.342	40.25
620.104	38.25
620.866	35.25
621.628	33.25
622.39	31.25
623.152	27.25
623.914	33.25
624.676	29.25
625.438	31.25
626.199	28.25
626.961	27.25
627.722	27.25
628.484	27.25
629.245	24.25
630.006	23.25
630.768	21.25
631.529	25.25
632.29	23.25
633.051	24.25
633.812	20.25
634.573	21.25
635.333	19.25
636.094	21.25
636.855	19.25
637.615	18.25
638.376	20.25
639.136	16.25
639.896	17.25
640.657	15.25
641.417	17.25
642.177	14.25
642.937	15.25
643.697	17.25
644.457	13.25
645.216	13.25
645.976	15.25
646.736	17.25
647.495	14.25
648.255	14.25
649.014	13.25
649.774	10.25
650.533	12.25
651.292	10.25
652.051	12.25
652.81	10.25
653.569	12.25
654.328	13.25
655.087	8.25
655.846	10.25
656.604	10.25
657.363	12.25
658.121	11.25
658.88	11.25
659.638	13.25
660.397	12.25
661.155	11.25
661.913	9.25
662.671	9.25
663.429	7.25
664.187	9.25
664.945	7.25
665.703	7.25
666.46	8.25
667.218	10.25
667.976	9.25
668.733	7.25
669.49	9.25
670.248	6.25
671.005	9.25
671.762	9.25
672.519	8.25
673.276	6.25
674.033	7.25
674.79	9.25
675.547	7.25
676.304	8.25
677.06	7.25
677.817	8.25
678.574	7.25
679.33	7.25
680.086	6.25
680.843	8.25
681.599	7.25
682.355	8.25
683.111	8.25
683.867	5.25
684.623	5.25
685.379	7.25
686.135	8.25
686.89	6.25
687.646	8.25
688.402	5.25
689.157	7.25
689.912	5.25
690.668	5.25
691.423	6.25
692.178	9.25
692.933	4.25
693.688	5.25
694.443	6.25
695.198	7.25
695.953	4.25
696.708	6.25
697.462	5.25
698.217	9.25
698.972	7.25
699.726	6.25
700.48	5.25
701.235	9.25
701.989	5.25
702.743	7.25
703.497	6.25
704.251	7.25
705.005	5.25
705.759	8.25
706.513	7.25
707.266	6.25
708.02	8.25
708.774	5.25
709.527	7.25
710.28	7.25
711.034	7.25
711.787	5.25
712.54	7.25
713.293	6.25
714.046	8.25
714.799	7.25
715.552	8.25
716.305	7.25
717.058	7.25
717.81	6.25
718.563	7.25
719.315	6.25
720.068	6.25
720.82	5.25
721.573	5.25
722.325	9.25
723.077	7.25
723.829	8.25
724.581	6.25
725.333	10.25
726.085	6.25
726.836	6.25
727.588	7.25
728.34	7.25
729.091	8.25
729.843	7.25
730.594	7.25
731.346	7.25
732.097	8.25
732.848	5.25
733.599	6.25
734.35	7.25
735.101	6.25
735.852	10.25
736.603	5.25
737.354	7.25
738.104	8.25
738.855	7.25
739.605	9.25
740.356	6.25
741.106	10.25
741.856	6.25
742.607	9.25
743.357	9.25
744.107	7.25
744.857	8.25
745.607	6.25
746.357	10.25
747.106	7.25
747.856	9.25
748.606	9.25
749.355	9.25
750.105	9.25
750.854	7.25
751.603	10.25
752.353	10.25
753.102	9.25
753.851	11.25
754.6	10.25
755.349	8.25
756.098	9.25
756.847	11.25
757.595	10.25
758.344	11.25
759.093	7.25
759.841	12.25
760.589	11.25
761.338	8.25
762.086	10.25
762.834	13.25
763.582	11.25
764.331	11.25
765.079	8.25
765.826	10.25
766.574	9.25
767.322	11.25
768.07	10.25
768.817	12.25
769.565	10.25
770.312	10.25
771.06	12.25
771.807	11.25
772.554	12.25
773.302	14.25
774.049	12.25
774.796	14.25
775.543	15.25
776.29	11.25
777.036	12.25
777.783	14.25
778.53	14.25
779.276	13.25
780.023	13.25
780.769	13.25
781.516	14.25
782.262	13.25
783.008	14.25
783.754	13.25
784.5	13.25
785.246	13.25
785.992	12.25
786.738	10.25
787.484	11.25
788.23	13.25
788.975	11.25
789.721	15.25
790.466	11.25
791.212	12.25
791.957	13.25
792.702	11.25
793.447	14.25
794.193	13.25
794.938	12.25
795.683	12.25
796.427	11.25
797.172	10.25
797.917	9.25
798.662	12.25
799.406	9.25
800.151	11.25
800.895	10.25
801.64	10.25
802.384	10.25
803.128	9.25
803.872	7.25
804.616	9.25
805.36	9.25
806.104	10.25
806.848	10.25
807.592	7.25
808.336	8.25
809.079	11.25
809.823	9.25
810.566	11.25
811.31	6.25
812.053	9.25
812.796	7.25
813.539	7.25
814.283	8.25
815.026	7.25
815.769	8.25
816.511	8.25
817.254	6.25
817.997	7.25
818.74	7.25
819.482	8.25
820.225	5.25
820.967	4.25
821.71	9.25
822.452	5.25
823.194	9.25
823.936	9.25
824.678	7.25
825.42	6.25
826.162	7.25
826.904	5.25
827.646	7.25
828.388	7.25
829.129	6.25
829.871	7.25
830.612	4.25
831.354	4.25
832.095	3.25
832.836	4.25
833.577	7.25
834.319	5.25
835.06	8.25
835.801	5.25
836.542	5.25
837.282	7.25
838.023	5.25
838.764	6.25
839.504	7.25
840.245	6.25
840.985	5.25
841.726	4.25
842.466	5.25
843.206	4.25
843.946	5.25
844.687	6.25
845.427	6.25
846.166	3.25
846.906	7.25
847.646	7.25
848.386	6.25
849.125	5.25
849.865	5.25
850.605	6.25
851.344	5.25
852.083	6.25
852.823	5.25
853.562	3.25
854.301	2.25
855.04	5.25
855.779	4.25
856.518	2.25
857.257	6.25
857.995	1.25
858.734	3.25
859.473	4.25
860.211	2.25
860.95	3.25
861.688	3.25
862.426	1.25
863.165	1.25
863.903	3.25
864.641	-0.75
865.379	2.25
866.117	2.25
866.855	1.25
867.593	3.25
868.33	3.25
869.068	4.25
869.806	2.25
870.543	1.25
871.28	3.25
872.018	2.25
872.755	3.25
873.492	1.25
874.229	3.25
874.967	1.25
875.703	4.25
876.44	1.25
877.177	1.25
877.914	1.25
878.651	2.25
879.387	3.25
880.124	2.25
880.86	1.25
881.597	2.25
882.333	0.25
883.069	-0.75
883.806	2.25
884.542	2.25
885.278	1.25
886.014	3.25
886.749	1.25
887.485	2.25
888.221	2.25
888.957	1.25
889.692	3.25
890.428	1.25
891.163	2.25
891.899	1.25
892.634	2.25
893.369	4.25
894.104	-1.75
894.839	3.25
895.574	1.25
896.309	1.25
897.044	2.25
897.779	-0.75
898.514	1.25
899.248	1.25
899.983	3.25
900.717	4.25
901.452	1.25
902.186	0.25
902.92	3.25
903.654	2.25
904.389	0.25
905.123	5.25
905.857	0.25
906.59	0.25
907.324	0.25
908.058	2.25
908.792	0.25
909.525	-0.75
910.259	1.25
910.992	1.25
911.726	1.25
912.459	1.25
913.192	1.25
913.925	1.25
914.658	1.25
915.391	-0.75
916.124	1.25
916.857	0.25
917.59	1.25
918.323	3.25
919.055	0.25
919.788	0.25
920.521	1.25
921.253	-0.75
921.985	1.25
922.718	-1.75
923.45	1.25
924.182	2.25
924.914	1.25
925.646	1.25
926.378	-0.75
927.11	1.25
927.841	3.25
928.573	2.25
929.305	-0.75
930.036	-1.75
930.768	0.25
931.499	-0.75
932.23	2.25
932.962	0.25
933.693	1.25
934.424	-0.75
935.155	1.25
935.886	2.25
936.617	0.25
937.348	2.25
938.078	-0.75
938.809	1.25
939.54	0.25
940.27	3.25
941.001	1.25
941.731	1.25
942.461	2.25
943.191	-0.75
943.922	2.25
944.652	1.25
945.382	2.25
946.112	0.25
946.841	2.25
947.571	2.25
948.301	1.25
949.031	-1.75
949.76	0.25
950.49	1.25
951.219	1.25
951.948	1.25
952.678	2.25
953.407	2.25
954.136	-0.75
954.865	1.25
955.594	-0.75
956.323	1.25
957.052	-0.75
957.78	1.25
958.509	-0.75
959.238	3.25
959.966	0.25
960.695	2.25
961.423	1.25
962.151	-0.75
962.88	1.25
963.608	1.25
964.336	-1.75
965.064	-0.75
965.792	1.25
966.52	1.25
967.247	0.25
967.975	-0.75
968.703	0.25
969.43	1.25
970.158	0.25
970.885	0.25
971.613	1.25
972.34	2.25
973.067	1.25
973.794	1.25
974.521	0.25
975.248	1.25
975.975	0.25
976.702	-1.75
977.429	2.25
978.156	-1.75
978.882	1.25
979.609	1.25
980.335	-0.75
981.062	1.25
981.788	-0.75
982.514	3.25
983.24	0.25
983.967	-0.75
984.693	1.25
985.419	-1.75
986.144	-0.75
986.87	-0.75
987.596	0.25
988.322	-0.75
989.047	0.25
989.773	0.25
990.498	-0.75
991.224	1.25
991.949	0.25
992.674	3.25
993.399	1.25
994.124	0.25
994.849	3.25
995.574	-0.75
996.299	0.25
997.024	0.25
997.749	2.25
998.473	2.25
999.198	3.25
999.922	0.25
1000.647	0.25
1001.371	2.25
1002.095	-1.75
1002.82	1.25
1003.544	1.25
1004.268	5.25
1004.992	4.25
1005.716	4.25
1006.439	2.25
1007.163	5.25
1007.887	4.25
1008.611	3.25
1009.334	0.25
1010.058	2.25
1010.781	-0.75
1011.504	0.25
1012.228	2.25
1012.951	-0.75
1013.674	-0.75
1014.397	-1.75
1015.12	0.25
