节点500_565_QEPB04081__156__09-53-00-955.txt的数据

Date: Thu Nov 13 09:53:00 CST 2025
User: PC
Spectrometer: QEPB0408
触发模式: 0
积分时间 (秒): 1.000000E-2
Scans to average: 1
启用暗噪声校正: true
启用非线性校正: false
滑动平均宽度: 0
X轴模式: Wavelengths
Number of Pixels in Spectrum: 1044
>>>>>Begin Spectral Data<<<<<
220.843	3.25
221.644	2.25
222.444	4.25
223.244	5.25
224.045	3.25
224.845	5.25
225.645	5.25
226.445	6.25
227.245	5.25
228.045	6.25
228.845	6.25
229.645	6.25
230.444	6.25
231.244	6.25
232.043	8.25
232.843	4.25
233.642	8.25
234.442	7.25
235.241	9.25
236.04	7.25
236.839	8.25
237.638	7.25
238.437	8.25
239.236	9.25
240.035	6.25
240.833	9.25
241.632	9.25
242.43	8.25
243.229	10.25
244.027	9.25
244.826	10.25
245.624	8.25
246.422	13.25
247.22	10.25
248.018	12.25
248.816	14.25
249.614	13.25
250.412	10.25
251.21	11.25
252.007	13.25
252.805	15.25
253.602	14.25
254.4	16.25
255.197	13.25
255.994	16.25
256.791	16.25
257.589	20.25
258.386	17.25
259.183	16.25
259.979	21.25
260.776	18.25
261.573	18.25
262.37	21.25
263.166	19.25
263.963	24.25
264.759	23.25
265.556	22.25
266.352	23.25
267.148	24.25
267.944	24.25
268.74	26.25
269.536	28.25
270.332	25.25
271.128	26.25
271.924	27.25
272.719	30.25
273.515	29.25
274.311	28.25
275.106	31.25
275.901	30.25
276.697	29.25
277.492	26.25
278.287	29.25
279.082	31.25
279.877	31.25
280.672	32.25
281.467	31.25
282.262	30.25
283.056	34.25
283.851	32.25
284.646	29.25
285.44	31.25
286.234	28.25
287.029	34.25
287.823	27.25
288.617	28.25
289.411	28.25
290.205	28.25
290.999	28.25
291.793	28.25
292.587	25.25
293.381	23.25
294.174	30.25
294.968	25.25
295.761	24.25
296.555	23.25
297.348	25.25
298.141	23.25
298.935	24.25
299.728	23.25
300.521	20.25
301.314	19.25
302.107	24.25
302.899	19.25
303.692	19.25
304.485	18.25
305.277	20.25
306.07	18.25
306.862	20.25
307.655	20.25
308.447	19.25
309.239	18.25
310.031	17.25
310.823	19.25
311.615	15.25
312.407	15.25
313.199	12.25
313.991	13.25
314.783	14.25
315.574	13.25
316.366	13.25
317.157	12.25
317.949	13.25
318.74	11.25
319.531	13.25
320.322	12.25
321.113	8.25
321.904	11.25
322.695	8.25
323.486	12.25
324.277	10.25
325.068	10.25
325.858	14.25
326.649	10.25
327.439	10.25
328.23	12.25
329.02	11.25
329.81	11.25
330.6	12.25
331.391	10.25
332.181	11.25
332.971	10.25
333.76	11.25
334.55	12.25
335.34	12.25
336.13	10.25
336.919	11.25
337.709	10.25
338.498	11.25
339.287	10.25
340.077	10.25
340.866	9.25
341.655	7.25
342.444	10.25
343.233	11.25
344.022	12.25
344.811	11.25
345.6	8.25
346.388	8.25
347.177	9.25
347.965	11.25
348.754	8.25
349.542	8.25
350.33	10.25
351.119	9.25
351.907	12.25
352.695	10.25
353.483	9.25
354.271	7.25
355.059	10.25
355.846	8.25
356.634	5.25
357.422	12.25
358.209	9.25
358.997	8.25
359.784	10.25
360.571	9.25
361.359	8.25
362.146	9.25
362.933	8.25
363.72	8.25
364.507	6.25
365.294	6.25
366.081	7.25
366.867	9.25
367.654	5.25
368.44	10.25
369.227	8.25
370.013	8.25
370.8	8.25
371.586	10.25
372.372	7.25
373.158	7.25
373.944	7.25
374.73	9.25
375.516	5.25
376.302	7.25
377.088	8.25
377.873	7.25
378.659	6.25
379.445	8.25
380.23	8.25
381.015	9.25
381.801	8.25
382.586	8.25
383.371	10.25
384.156	8.25
384.941	7.25
385.726	10.25
386.511	9.25
387.296	8.25
388.08	10.25
388.865	8.25
389.649	9.25
390.434	12.25
391.218	10.25
392.003	9.25
392.787	9.25
393.571	12.25
394.355	9.25
395.139	8.25
395.923	13.25
396.707	8.25
397.491	9.25
398.274	9.25
399.058	12.25
399.842	10.25
400.625	9.25
401.408	13.25
402.192	12.25
402.975	12.25
403.758	9.25
404.541	13.25
405.324	12.25
406.107	12.25
406.89	12.25
407.673	12.25
408.456	13.25
409.238	12.25
410.021	16.25
410.803	14.25
411.586	16.25
412.368	15.25
413.151	14.25
413.933	16.25
414.715	13.25
415.497	17.25
416.279	17.25
417.061	13.25
417.843	19.25
418.624	16.25
419.406	16.25
420.188	18.25
420.969	17.25
421.751	15.25
422.532	19.25
423.313	18.25
424.095	18.25
424.876	20.25
425.657	18.25
426.438	22.25
427.219	20.25
428	22.25
428.78	24.25
429.561	22.25
430.342	22.25
431.122	28.25
431.903	25.25
432.683	28.25
433.464	27.25
434.244	27.25
435.024	30.25
435.804	36.25
436.584	34.25
437.364	38.25
438.144	38.25
438.924	38.25
439.704	41.25
440.483	43.25
441.263	48.25
442.042	50.25
442.822	50.25
443.601	51.25
444.38	61.25
445.16	66.25
445.939	70.25
446.718	75.25
447.497	82.25
448.276	87.25
449.054	97.25
449.833	109.25
450.612	111.25
451.391	126.25
452.169	139.25
452.948	153.25
453.726	169.25
454.504	185.25
455.282	210.25
456.061	233.25
456.839	256.25
457.617	285.25
458.395	321.25
459.172	349.25
459.95	395.25
460.728	445.25
461.506	497.25
462.283	562.25
463.061	622.25
463.838	696.25
464.615	775.25
465.393	863.25
466.17	968.25
466.947	1091.25
467.724	1191.25
468.501	1334.25
469.278	1496.25
470.055	1637.25
470.831	1832.25
471.608	2045.25
472.385	2264.25
473.161	2509.25
473.938	2772.25
474.714	3042.25
475.49	3374.25
476.266	3724.25
477.043	4107.25
477.819	4508.25
478.595	4990.25
479.371	5453.25
480.146	5987.25
480.922	6576.25
481.698	7197.25
482.473	7860.25
483.249	8582.25
484.024	9426.25
484.8	10285.25
485.575	11252.25
486.35	12216.25
487.126	13274.25
487.901	14508.25
488.676	15769.25
489.451	17085.25
490.225	18535.25
491	19950.25
491.775	21558.25
492.55	23149.25
493.324	24810.25
494.099	26446.25
494.873	28122.25
495.647	29992.25
496.422	31647.25
497.196	33426.25
497.97	35033.25
498.744	36498.25
499.518	37877.25
500.292	39184.25
501.066	40304.25
501.839	41325.25
502.613	42070.25
503.387	42564.25
504.16	43045.25
504.934	43033.25
505.707	42949.25
506.48	42703.25
507.253	42151.25
508.027	41296.25
508.8	40386.25
509.573	39277.25
510.346	38075.25
511.118	36820.25
511.891	35667.25
512.664	34362.25
513.437	32983.25
514.209	31553.25
514.982	30378.25
515.754	29108.25
516.526	27752.25
517.298	26597.25
518.071	25561.25
518.843	24516.25
519.615	23478.25
520.387	22505.25
521.159	21710.25
521.93	20758.25
522.702	19907.25
523.474	19059.25
524.245	18271.25
525.017	17546.25
525.788	16787.25
526.56	15956.25
527.331	15245.25
528.102	14515.25
528.873	13758.25
529.644	13110.25
530.415	12378.25
531.186	11743.25
531.957	11173.25
532.728	10588.25
533.498	10012.25
534.269	9440.25
535.039	8896.25
535.81	8426.25
536.58	7988.25
537.351	7553.25
538.121	7124.25
538.891	6732.25
539.661	6407.25
540.431	6070.25
541.201	5712.25
541.971	5428.25
542.741	5154.25
543.51	4880.25
544.28	4632.25
545.05	4410.25
545.819	4202.25
546.588	3967.25
547.358	3786.25
548.127	3584.25
548.896	3408.25
549.665	3267.25
550.434	3078.25
551.203	2921.25
551.972	2768.25
552.741	2614.25
553.51	2452.25
554.278	2300.25
555.047	2179.25
555.815	2082.25
556.584	1949.25
557.352	1849.25
558.121	1732.25
558.889	1644.25
559.657	1551.25
560.425	1462.25
561.193	1396.25
561.961	1333.25
562.729	1261.25
563.496	1186.25
564.264	1118.25
565.032	1058.25
565.799	988.25
566.567	957.25
567.334	897.25
568.101	845.25
568.869	792.25
569.636	754.25
570.403	715.25
571.17	674.25
571.937	634.25
572.704	598.25
573.471	557.25
574.237	540.25
575.004	499.25
575.771	472.25
576.537	446.25
577.303	412.25
578.07	398.25
578.836	372.25
579.602	353.25
580.368	336.25
581.134	317.25
581.9	300.25
582.666	280.25
583.432	269.25
584.198	257.25
584.964	247.25
585.729	229.25
586.495	226.25
587.26	208.25
588.025	196.25
588.791	192.25
589.556	180.25
590.321	164.25
591.086	161.25
591.851	151.25
592.616	141.25
593.381	138.25
594.146	131.25
594.911	125.25
595.675	122.25
596.44	118.25
597.204	113.25
597.969	103.25
598.733	101.25
599.497	99.25
600.261	96.25
601.025	83.25
601.79	84.25
602.553	81.25
603.317	76.25
604.081	74.25
604.845	76.25
605.609	70.25
606.372	63.25
607.136	63.25
607.899	61.25
608.662	61.25
609.426	60.25
610.189	54.25
610.952	52.25
611.715	48.25
612.478	51.25
613.241	42.25
614.004	46.25
614.767	44.25
615.529	44.25
616.292	41.25
617.055	38.25
617.817	37.25
618.579	36.25
619.342	38.25
620.104	32.25
620.866	32.25
621.628	34.25
622.39	30.25
623.152	30.25
623.914	27.25
624.676	27.25
625.438	25.25
626.199	26.25
626.961	25.25
627.722	25.25
628.484	24.25
629.245	23.25
630.006	24.25
630.768	23.25
631.529	23.25
632.29	18.25
633.051	20.25
633.812	20.25
634.573	18.25
635.333	20.25
636.094	16.25
636.855	16.25
637.615	16.25
638.376	18.25
639.136	16.25
639.896	13.25
640.657	16.25
641.417	13.25
642.177	14.25
642.937	12.25
643.697	11.25
644.457	12.25
645.216	13.25
645.976	11.25
646.736	9.25
647.495	13.25
648.255	12.25
649.014	10.25
649.774	12.25
650.533	11.25
651.292	9.25
652.051	11.25
652.81	10.25
653.569	11.25
654.328	10.25
655.087	12.25
655.846	9.25
656.604	10.25
657.363	8.25
658.121	11.25
658.88	7.25
659.638	10.25
660.397	7.25
661.155	8.25
661.913	9.25
662.671	9.25
663.429	9.25
664.187	8.25
664.945	10.25
665.703	10.25
666.46	7.25
667.218	8.25
667.976	8.25
668.733	7.25
669.49	9.25
670.248	10.25
671.005	7.25
671.762	6.25
672.519	8.25
673.276	6.25
674.033	8.25
674.79	6.25
675.547	10.25
676.304	8.25
677.06	7.25
677.817	7.25
678.574	4.25
679.33	6.25
680.086	6.25
680.843	6.25
681.599	4.25
682.355	8.25
683.111	8.25
683.867	6.25
684.623	8.25
685.379	8.25
686.135	8.25
686.89	5.25
687.646	7.25
688.402	7.25
689.157	3.25
689.912	6.25
690.668	8.25
691.423	5.25
692.178	5.25
692.933	9.25
693.688	8.25
694.443	6.25
695.198	7.25
695.953	4.25
696.708	6.25
697.462	7.25
698.217	4.25
698.972	8.25
699.726	6.25
700.48	6.25
701.235	6.25
701.989	6.25
702.743	8.25
703.497	4.25
704.251	8.25
705.005	7.25
705.759	7.25
706.513	6.25
707.266	6.25
708.02	7.25
708.774	3.25
709.527	7.25
710.28	6.25
711.034	7.25
711.787	5.25
712.54	7.25
713.293	7.25
714.046	8.25
714.799	5.25
715.552	4.25
716.305	8.25
717.058	9.25
717.81	6.25
718.563	4.25
719.315	6.25
720.068	6.25
720.82	7.25
721.573	5.25
722.325	7.25
723.077	6.25
723.829	4.25
724.581	5.25
725.333	7.25
726.085	6.25
726.836	8.25
727.588	8.25
728.34	9.25
729.091	6.25
729.843	6.25
730.594	6.25
731.346	5.25
732.097	7.25
732.848	8.25
733.599	9.25
734.35	8.25
735.101	7.25
735.852	8.25
736.603	6.25
737.354	8.25
738.104	8.25
738.855	8.25
739.605	8.25
740.356	10.25
741.106	8.25
741.856	5.25
742.607	9.25
743.357	7.25
744.107	10.25
744.857	10.25
745.607	9.25
746.357	10.25
747.106	8.25
747.856	8.25
748.606	9.25
749.355	10.25
750.105	9.25
750.854	9.25
751.603	8.25
752.353	6.25
753.102	10.25
753.851	9.25
754.6	10.25
755.349	13.25
756.098	8.25
756.847	10.25
757.595	7.25
758.344	9.25
759.093	9.25
759.841	12.25
760.589	11.25
761.338	9.25
762.086	12.25
762.834	9.25
763.582	12.25
764.331	12.25
765.079	13.25
765.826	11.25
766.574	9.25
767.322	11.25
768.07	11.25
768.817	13.25
769.565	14.25
770.312	14.25
771.06	12.25
771.807	15.25
772.554	13.25
773.302	11.25
774.049	13.25
774.796	14.25
775.543	12.25
776.29	17.25
777.036	12.25
777.783	13.25
778.53	11.25
779.276	12.25
780.023	17.25
780.769	12.25
781.516	13.25
782.262	11.25
783.008	15.25
783.754	13.25
784.5	13.25
785.246	15.25
785.992	14.25
786.738	16.25
787.484	14.25
788.23	14.25
788.975	10.25
789.721	15.25
790.466	13.25
791.212	15.25
791.957	13.25
792.702	12.25
793.447	12.25
794.193	12.25
794.938	12.25
795.683	13.25
796.427	13.25
797.172	10.25
797.917	14.25
798.662	12.25
799.406	8.25
800.151	12.25
800.895	9.25
801.64	12.25
802.384	8.25
803.128	10.25
803.872	11.25
804.616	9.25
805.36	6.25
806.104	9.25
806.848	9.25
807.592	7.25
808.336	7.25
809.079	11.25
809.823	6.25
810.566	8.25
811.31	8.25
812.053	8.25
812.796	8.25
813.539	7.25
814.283	9.25
815.026	6.25
815.769	9.25
816.511	6.25
817.254	7.25
817.997	7.25
818.74	9.25
819.482	5.25
820.225	5.25
820.967	7.25
821.71	7.25
822.452	7.25
823.194	7.25
823.936	6.25
824.678	6.25
825.42	4.25
826.162	6.25
826.904	5.25
827.646	6.25
828.388	6.25
829.129	5.25
829.871	6.25
830.612	4.25
831.354	6.25
832.095	6.25
832.836	5.25
833.577	5.25
834.319	5.25
835.06	6.25
835.801	2.25
836.542	7.25
837.282	3.25
838.023	3.25
838.764	4.25
839.504	3.25
840.245	4.25
840.985	7.25
841.726	5.25
842.466	2.25
843.206	5.25
843.946	5.25
844.687	6.25
845.427	5.25
846.166	4.25
846.906	6.25
847.646	4.25
848.386	4.25
849.125	5.25
849.865	4.25
850.605	5.25
851.344	4.25
852.083	2.25
852.823	5.25
853.562	1.25
854.301	4.25
855.04	2.25
855.779	1.25
856.518	2.25
857.257	4.25
857.995	3.25
858.734	3.25
859.473	4.25
860.211	5.25
860.95	4.25
861.688	2.25
862.426	2.25
863.165	1.25
863.903	2.25
864.641	3.25
865.379	3.25
866.117	1.25
866.855	1.25
867.593	1.25
868.33	2.25
869.068	4.25
869.806	1.25
870.543	1.25
871.28	1.25
872.018	2.25
872.755	1.25
873.492	1.25
874.229	3.25
874.967	0.25
875.703	0.25
876.44	1.25
877.177	3.25
877.914	1.25
878.651	0.25
879.387	2.25
880.124	2.25
880.86	1.25
881.597	2.25
882.333	1.25
883.069	2.25
883.806	1.25
884.542	2.25
885.278	0.25
886.014	2.25
886.749	3.25
887.485	1.25
888.221	-0.75
888.957	1.25
889.692	3.25
890.428	1.25
891.163	3.25
891.899	0.25
892.634	2.25
893.369	3.25
894.104	2.25
894.839	2.25
895.574	-0.75
896.309	3.25
897.044	-0.75
897.779	0.25
898.514	1.25
899.248	1.25
899.983	2.25
900.717	-0.75
901.452	1.25
902.186	1.25
902.92	-0.75
903.654	0.25
904.389	-0.75
905.123	-1.75
905.857	0.25
906.59	-1.75
907.324	0.25
908.058	0.25
908.792	0.25
909.525	0.25
910.259	2.25
910.992	1.25
911.726	1.25
912.459	1.25
913.192	0.25
913.925	-1.75
914.658	0.25
915.391	1.25
916.124	0.25
916.857	0.25
917.59	0.25
918.323	0.25
919.055	1.25
919.788	-0.75
920.521	2.25
921.253	0.25
921.985	0.25
922.718	-1.75
923.45	1.25
924.182	-2.75
924.914	1.25
925.646	1.25
926.378	0.25
927.11	-0.75
927.841	-0.75
928.573	1.25
929.305	1.25
930.036	0.25
930.768	0.25
931.499	1.25
932.23	1.25
932.962	-0.75
933.693	1.25
934.424	-0.75
935.155	-0.75
935.886	2.25
936.617	-0.75
937.348	-0.75
938.078	2.25
938.809	2.25
939.54	-2.75
940.27	0.25
941.001	-2.75
941.731	-0.75
942.461	0.25
943.191	1.25
943.922	0.25
944.652	1.25
945.382	-0.75
946.112	1.25
946.841	0.25
947.571	0.25
948.301	-0.75
949.031	1.25
949.76	-0.75
950.49	0.25
951.219	-0.75
951.948	1.25
952.678	2.25
953.407	0.25
954.136	1.25
954.865	2.25
955.594	1.25
956.323	-0.75
957.052	0.25
957.78	1.25
958.509	-0.75
959.238	-0.75
959.966	-0.75
960.695	1.25
961.423	-0.75
962.151	-1.75
962.88	1.25
963.608	0.25
964.336	1.25
965.064	1.25
965.792	1.25
966.52	1.25
967.247	1.25
967.975	1.25
968.703	1.25
969.43	0.25
970.158	-0.75
970.885	1.25
971.613	0.25
972.34	1.25
973.067	-0.75
973.794	1.25
974.521	0.25
975.248	-1.75
975.975	0.25
976.702	1.25
977.429	0.25
978.156	0.25
978.882	-1.75
979.609	1.25
980.335	-1.75
981.062	-0.75
981.788	0.25
982.514	2.25
983.24	0.25
983.967	-1.75
984.693	1.25
985.419	-0.75
986.144	0.25
986.87	0.25
987.596	-0.75
988.322	0.25
989.047	0.25
989.773	0.25
990.498	0.25
991.224	-0.75
991.949	1.25
992.674	0.25
993.399	-0.75
994.124	-0.75
994.849	2.25
995.574	-0.75
996.299	0.25
997.024	0.25
997.749	0.25
998.473	0.25
999.198	-0.75
999.922	0.25
1000.647	0.25
1001.371	4.25
1002.095	-1.75
1002.82	-1.75
1003.544	-0.75
1004.268	2.25
1004.992	4.25
1005.716	1.25
1006.439	6.25
1007.163	4.25
1007.887	3.25
1008.611	1.25
1009.334	0.25
1010.058	-0.75
1010.781	0.25
1011.504	0.25
1012.228	-1.75
1012.951	0.25
1013.674	-1.75
1014.397	1.25
1015.12	0.25
