节点500_565_QEPB04081__236__09-54-20-725.txt的数据

Date: Thu Nov 13 09:54:20 CST 2025
User: PC
Spectrometer: QEPB0408
触发模式: 0
积分时间 (秒): 1.000000E-2
Scans to average: 1
启用暗噪声校正: true
启用非线性校正: false
滑动平均宽度: 0
X轴模式: Wavelengths
Number of Pixels in Spectrum: 1044
>>>>>Begin Spectral Data<<<<<
220.843	3.25
221.644	4.25
222.444	4.25
223.244	4.25
224.045	4.25
224.845	4.25
225.645	4.25
226.445	4.25
227.245	4.25
228.045	7.25
228.845	7.25
229.645	6.25
230.444	6.25
231.244	4.25
232.043	6.25
232.843	4.25
233.642	9.25
234.442	7.25
235.241	6.25
236.04	6.25
236.839	7.25
237.638	10.25
238.437	5.25
239.236	8.25
240.035	8.25
240.833	8.25
241.632	9.25
242.43	8.25
243.229	11.25
244.027	9.25
244.826	12.25
245.624	8.25
246.422	12.25
247.22	12.25
248.018	13.25
248.816	13.25
249.614	9.25
250.412	11.25
251.21	12.25
252.007	12.25
252.805	13.25
253.602	13.25
254.4	16.25
255.197	16.25
255.994	15.25
256.791	14.25
257.589	17.25
258.386	15.25
259.183	17.25
259.979	19.25
260.776	19.25
261.573	20.25
262.37	18.25
263.166	20.25
263.963	18.25
264.759	20.25
265.556	23.25
266.352	22.25
267.148	22.25
267.944	22.25
268.74	26.25
269.536	26.25
270.332	27.25
271.128	28.25
271.924	27.25
272.719	28.25
273.515	27.25
274.311	29.25
275.106	28.25
275.901	28.25
276.697	28.25
277.492	27.25
278.287	26.25
279.082	28.25
279.877	31.25
280.672	29.25
281.467	29.25
282.262	31.25
283.056	29.25
283.851	29.25
284.646	28.25
285.44	28.25
286.234	28.25
287.029	28.25
287.823	30.25
288.617	28.25
289.411	25.25
290.205	28.25
290.999	31.25
291.793	29.25
292.587	26.25
293.381	26.25
294.174	25.25
294.968	26.25
295.761	26.25
296.555	20.25
297.348	21.25
298.141	20.25
298.935	22.25
299.728	20.25
300.521	22.25
301.314	22.25
302.107	21.25
302.899	21.25
303.692	20.25
304.485	18.25
305.277	18.25
306.07	19.25
306.862	18.25
307.655	19.25
308.447	19.25
309.239	18.25
310.031	16.25
310.823	15.25
311.615	16.25
312.407	16.25
313.199	14.25
313.991	13.25
314.783	13.25
315.574	13.25
316.366	13.25
317.157	15.25
317.949	12.25
318.74	14.25
319.531	10.25
320.322	11.25
321.113	12.25
321.904	10.25
322.695	12.25
323.486	9.25
324.277	10.25
325.068	11.25
325.858	13.25
326.649	12.25
327.439	10.25
328.23	12.25
329.02	10.25
329.81	11.25
330.6	10.25
331.391	11.25
332.181	13.25
332.971	8.25
333.76	9.25
334.55	7.25
335.34	10.25
336.13	10.25
336.919	8.25
337.709	10.25
338.498	9.25
339.287	8.25
340.077	10.25
340.866	11.25
341.655	8.25
342.444	10.25
343.233	9.25
344.022	10.25
344.811	10.25
345.6	10.25
346.388	10.25
347.177	10.25
347.965	7.25
348.754	7.25
349.542	10.25
350.33	9.25
351.119	10.25
351.907	8.25
352.695	9.25
353.483	9.25
354.271	9.25
355.059	9.25
355.846	9.25
356.634	8.25
357.422	10.25
358.209	7.25
358.997	10.25
359.784	8.25
360.571	9.25
361.359	9.25
362.146	9.25
362.933	6.25
363.72	10.25
364.507	9.25
365.294	7.25
366.081	6.25
366.867	9.25
367.654	8.25
368.44	8.25
369.227	7.25
370.013	7.25
370.8	6.25
371.586	9.25
372.372	9.25
373.158	7.25
373.944	9.25
374.73	7.25
375.516	9.25
376.302	11.25
377.088	6.25
377.873	6.25
378.659	7.25
379.445	9.25
380.23	7.25
381.015	9.25
381.801	7.25
382.586	7.25
383.371	8.25
384.156	7.25
384.941	9.25
385.726	10.25
386.511	9.25
387.296	11.25
388.08	8.25
388.865	10.25
389.649	7.25
390.434	10.25
391.218	10.25
392.003	11.25
392.787	10.25
393.571	10.25
394.355	9.25
395.139	9.25
395.923	11.25
396.707	7.25
397.491	12.25
398.274	12.25
399.058	11.25
399.842	10.25
400.625	10.25
401.408	11.25
402.192	13.25
402.975	12.25
403.758	12.25
404.541	13.25
405.324	13.25
406.107	13.25
406.89	10.25
407.673	14.25
408.456	15.25
409.238	14.25
410.021	16.25
410.803	14.25
411.586	13.25
412.368	14.25
413.151	13.25
413.933	16.25
414.715	12.25
415.497	15.25
416.279	14.25
417.061	17.25
417.843	16.25
418.624	15.25
419.406	15.25
420.188	17.25
420.969	18.25
421.751	18.25
422.532	17.25
423.313	18.25
424.095	18.25
424.876	18.25
425.657	22.25
426.438	24.25
427.219	21.25
428	22.25
428.78	20.25
429.561	23.25
430.342	24.25
431.122	27.25
431.903	26.25
432.683	28.25
433.464	27.25
434.244	32.25
435.024	30.25
435.804	32.25
436.584	34.25
437.364	35.25
438.144	37.25
438.924	40.25
439.704	41.25
440.483	41.25
441.263	44.25
442.042	52.25
442.822	54.25
443.601	58.25
444.38	61.25
445.16	65.25
445.939	69.25
446.718	78.25
447.497	82.25
448.276	88.25
449.054	100.25
449.833	106.25
450.612	119.25
451.391	128.25
452.169	146.25
452.948	157.25
453.726	173.25
454.504	189.25
455.282	216.25
456.061	234.25
456.839	261.25
457.617	299.25
458.395	334.25
459.172	366.25
459.95	412.25
460.728	455.25
461.506	518.25
462.283	573.25
463.061	634.25
463.838	718.25
464.615	795.25
465.393	879.25
466.17	979.25
466.947	1083.25
467.724	1227.25
468.501	1365.25
469.278	1508.25
470.055	1682.25
470.831	1858.25
471.608	2077.25
472.385	2277.25
473.161	2517.25
473.938	2781.25
474.714	3077.25
475.49	3371.25
476.266	3704.25
477.043	4093.25
477.819	4502.25
478.595	4946.25
479.371	5398.25
480.146	5905.25
480.922	6483.25
481.698	7065.25
482.473	7737.25
483.249	8400.25
484.024	9248.25
484.8	10075.25
485.575	10985.25
486.35	11868.25
487.126	12995.25
487.901	14055.25
488.676	15282.25
489.451	16626.25
490.225	17892.25
491	19329.25
491.775	20812.25
492.55	22352.25
493.324	23915.25
494.099	25419.25
494.873	27130.25
495.647	28894.25
496.422	30522.25
497.196	32166.25
497.97	33790.25
498.744	35278.25
499.518	36678.25
500.292	37876.25
501.066	39065.25
501.839	40175.25
502.613	40958.25
503.387	41593.25
504.16	42047.25
504.934	42226.25
505.707	42161.25
506.48	42005.25
507.253	41601.25
508.027	40796.25
508.8	40066.25
509.573	39122.25
510.346	37985.25
511.118	36770.25
511.891	35753.25
512.664	34378.25
513.437	33174.25
514.209	31799.25
514.982	30486.25
515.754	29322.25
516.526	28057.25
517.298	26888.25
518.071	25821.25
518.843	24730.25
519.615	23757.25
520.387	22797.25
521.159	21920.25
521.93	20985.25
522.702	20164.25
523.474	19315.25
524.245	18573.25
525.017	17792.25
525.788	16958.25
526.56	16226.25
527.331	15483.25
528.102	14726.25
528.873	13994.25
529.644	13354.25
530.415	12621.25
531.186	11971.25
531.957	11400.25
532.728	10798.25
533.498	10233.25
534.269	9659.25
535.039	9145.25
535.81	8653.25
536.58	8168.25
537.351	7750.25
538.121	7336.25
538.891	6907.25
539.661	6555.25
540.431	6206.25
541.201	5864.25
541.971	5539.25
542.741	5270.25
543.51	4992.25
544.28	4739.25
545.05	4503.25
545.819	4308.25
546.588	4101.25
547.358	3885.25
548.127	3685.25
548.896	3524.25
549.665	3311.25
550.434	3182.25
551.203	2986.25
551.972	2840.25
552.741	2688.25
553.51	2541.25
554.278	2391.25
555.047	2256.25
555.815	2123.25
556.584	2029.25
557.352	1918.25
558.121	1798.25
558.889	1689.25
559.657	1597.25
560.425	1501.25
561.193	1422.25
561.961	1342.25
562.729	1275.25
563.496	1202.25
564.264	1139.25
565.032	1093.25
565.799	1030.25
566.567	982.25
567.334	909.25
568.101	859.25
568.869	812.25
569.636	769.25
570.403	724.25
571.17	692.25
571.937	651.25
572.704	622.25
573.471	572.25
574.237	546.25
575.004	518.25
575.771	487.25
576.537	462.25
577.303	444.25
578.07	408.25
578.836	377.25
579.602	362.25
580.368	350.25
581.134	328.25
581.9	306.25
582.666	294.25
583.432	275.25
584.198	257.25
584.964	248.25
585.729	248.25
586.495	223.25
587.26	216.25
588.025	202.25
588.791	194.25
589.556	181.25
590.321	174.25
591.086	164.25
591.851	153.25
592.616	148.25
593.381	142.25
594.146	135.25
594.911	129.25
595.675	120.25
596.44	120.25
597.204	111.25
597.969	108.25
598.733	106.25
599.497	98.25
600.261	94.25
601.025	85.25
601.79	85.25
602.553	89.25
603.317	77.25
604.081	73.25
604.845	72.25
605.609	70.25
606.372	67.25
607.136	67.25
607.899	60.25
608.662	58.25
609.426	59.25
610.189	54.25
610.952	52.25
611.715	54.25
612.478	47.25
613.241	48.25
614.004	48.25
614.767	43.25
615.529	41.25
616.292	44.25
617.055	38.25
617.817	43.25
618.579	36.25
619.342	35.25
620.104	36.25
620.866	34.25
621.628	31.25
622.39	30.25
623.152	32.25
623.914	29.25
624.676	27.25
625.438	28.25
626.199	27.25
626.961	25.25
627.722	24.25
628.484	26.25
629.245	23.25
630.006	25.25
630.768	20.25
631.529	22.25
632.29	21.25
633.051	17.25
633.812	19.25
634.573	20.25
635.333	18.25
636.094	19.25
636.855	18.25
637.615	20.25
638.376	17.25
639.136	18.25
639.896	20.25
640.657	18.25
641.417	16.25
642.177	14.25
642.937	15.25
643.697	16.25
644.457	13.25
645.216	16.25
645.976	11.25
646.736	13.25
647.495	12.25
648.255	13.25
649.014	11.25
649.774	14.25
650.533	10.25
651.292	12.25
652.051	13.25
652.81	12.25
653.569	9.25
654.328	10.25
655.087	9.25
655.846	9.25
656.604	9.25
657.363	10.25
658.121	11.25
658.88	9.25
659.638	13.25
660.397	14.25
661.155	9.25
661.913	7.25
662.671	8.25
663.429	10.25
664.187	6.25
664.945	7.25
665.703	11.25
666.46	10.25
667.218	7.25
667.976	7.25
668.733	5.25
669.49	12.25
670.248	5.25
671.005	8.25
671.762	6.25
672.519	10.25
673.276	8.25
674.033	6.25
674.79	6.25
675.547	6.25
676.304	9.25
677.06	5.25
677.817	8.25
678.574	6.25
679.33	6.25
680.086	8.25
680.843	4.25
681.599	8.25
682.355	7.25
683.111	6.25
683.867	7.25
684.623	5.25
685.379	7.25
686.135	4.25
686.89	8.25
687.646	8.25
688.402	6.25
689.157	5.25
689.912	6.25
690.668	6.25
691.423	6.25
692.178	8.25
692.933	3.25
693.688	6.25
694.443	3.25
695.198	6.25
695.953	7.25
696.708	5.25
697.462	8.25
698.217	5.25
698.972	7.25
699.726	4.25
700.48	6.25
701.235	5.25
701.989	7.25
702.743	6.25
703.497	5.25
704.251	7.25
705.005	5.25
705.759	6.25
706.513	8.25
707.266	5.25
708.02	5.25
708.774	6.25
709.527	6.25
710.28	5.25
711.034	6.25
711.787	4.25
712.54	5.25
713.293	7.25
714.046	6.25
714.799	5.25
715.552	9.25
716.305	5.25
717.058	6.25
717.81	4.25
718.563	6.25
719.315	5.25
720.068	5.25
720.82	6.25
721.573	5.25
722.325	8.25
723.077	5.25
723.829	8.25
724.581	4.25
725.333	8.25
726.085	6.25
726.836	6.25
727.588	6.25
728.34	6.25
729.091	9.25
729.843	6.25
730.594	8.25
731.346	7.25
732.097	5.25
732.848	8.25
733.599	7.25
734.35	6.25
735.101	6.25
735.852	8.25
736.603	7.25
737.354	8.25
738.104	7.25
738.855	6.25
739.605	8.25
740.356	7.25
741.106	11.25
741.856	5.25
742.607	7.25
743.357	9.25
744.107	5.25
744.857	8.25
745.607	9.25
746.357	9.25
747.106	6.25
747.856	11.25
748.606	9.25
749.355	9.25
750.105	11.25
750.854	7.25
751.603	11.25
752.353	10.25
753.102	9.25
753.851	9.25
754.6	12.25
755.349	11.25
756.098	9.25
756.847	9.25
757.595	9.25
758.344	11.25
759.093	9.25
759.841	9.25
760.589	11.25
761.338	11.25
762.086	9.25
762.834	8.25
763.582	11.25
764.331	13.25
765.079	12.25
765.826	13.25
766.574	12.25
767.322	13.25
768.07	11.25
768.817	11.25
769.565	12.25
770.312	10.25
771.06	12.25
771.807	11.25
772.554	13.25
773.302	11.25
774.049	11.25
774.796	13.25
775.543	16.25
776.29	12.25
777.036	11.25
777.783	11.25
778.53	10.25
779.276	14.25
780.023	12.25
780.769	15.25
781.516	14.25
782.262	14.25
783.008	15.25
783.754	16.25
784.5	14.25
785.246	9.25
785.992	13.25
786.738	14.25
787.484	15.25
788.23	14.25
788.975	9.25
789.721	13.25
790.466	13.25
791.212	14.25
791.957	13.25
792.702	13.25
793.447	9.25
794.193	13.25
794.938	12.25
795.683	11.25
796.427	11.25
797.172	12.25
797.917	12.25
798.662	10.25
799.406	12.25
800.151	10.25
800.895	9.25
801.64	12.25
802.384	9.25
803.128	11.25
803.872	9.25
804.616	9.25
805.36	9.25
806.104	9.25
806.848	8.25
807.592	7.25
808.336	8.25
809.079	9.25
809.823	8.25
810.566	11.25
811.31	7.25
812.053	9.25
812.796	6.25
813.539	7.25
814.283	8.25
815.026	9.25
815.769	8.25
816.511	9.25
817.254	6.25
817.997	7.25
818.74	8.25
819.482	5.25
820.225	7.25
820.967	6.25
821.71	7.25
822.452	4.25
823.194	5.25
823.936	9.25
824.678	7.25
825.42	5.25
826.162	4.25
826.904	5.25
827.646	6.25
828.388	6.25
829.129	7.25
829.871	6.25
830.612	6.25
831.354	4.25
832.095	4.25
832.836	4.25
833.577	6.25
834.319	4.25
835.06	5.25
835.801	3.25
836.542	8.25
837.282	3.25
838.023	2.25
838.764	5.25
839.504	5.25
840.245	3.25
840.985	6.25
841.726	6.25
842.466	5.25
843.206	4.25
843.946	3.25
844.687	6.25
845.427	3.25
846.166	4.25
846.906	2.25
847.646	5.25
848.386	5.25
849.125	4.25
849.865	3.25
850.605	3.25
851.344	3.25
852.083	6.25
852.823	4.25
853.562	4.25
854.301	4.25
855.04	4.25
855.779	6.25
856.518	4.25
857.257	1.25
857.995	1.25
858.734	5.25
859.473	3.25
860.211	3.25
860.95	2.25
861.688	3.25
862.426	3.25
863.165	2.25
863.903	2.25
864.641	2.25
865.379	2.25
866.117	4.25
866.855	1.25
867.593	1.25
868.33	1.25
869.068	0.25
869.806	0.25
870.543	2.25
871.28	2.25
872.018	-0.75
872.755	0.25
873.492	1.25
874.229	3.25
874.967	0.25
875.703	0.25
876.44	1.25
877.177	1.25
877.914	-0.75
878.651	-1.75
879.387	2.25
880.124	2.25
880.86	0.25
881.597	0.25
882.333	2.25
883.069	2.25
883.806	0.25
884.542	0.25
885.278	0.25
886.014	0.25
886.749	1.25
887.485	2.25
888.221	0.25
888.957	1.25
889.692	1.25
890.428	1.25
891.163	0.25
891.899	0.25
892.634	3.25
893.369	1.25
894.104	2.25
894.839	0.25
895.574	-0.75
896.309	1.25
897.044	1.25
897.779	1.25
898.514	2.25
899.248	0.25
899.983	3.25
900.717	0.25
901.452	1.25
902.186	0.25
902.92	0.25
903.654	0.25
904.389	-1.75
905.123	2.25
905.857	0.25
906.59	1.25
907.324	0.25
908.058	1.25
908.792	0.25
909.525	1.25
910.259	-1.75
910.992	1.25
911.726	-0.75
912.459	-1.75
913.192	1.25
913.925	0.25
914.658	0.25
915.391	-0.75
916.124	-1.75
916.857	1.25
917.59	0.25
918.323	0.25
919.055	-0.75
919.788	-0.75
920.521	0.25
921.253	-1.75
921.985	1.25
922.718	0.25
923.45	0.25
924.182	-1.75
924.914	1.25
925.646	0.25
926.378	-1.75
927.11	2.25
927.841	0.25
928.573	0.25
929.305	0.25
930.036	-1.75
930.768	-0.75
931.499	1.25
932.23	0.25
932.962	-1.75
933.693	3.25
934.424	1.25
935.155	-0.75
935.886	-0.75
936.617	-2.75
937.348	1.25
938.078	1.25
938.809	0.25
939.54	0.25
940.27	1.25
941.001	-1.75
941.731	-1.75
942.461	0.25
943.191	-1.75
943.922	2.25
944.652	2.25
945.382	0.25
946.112	0.25
946.841	-1.75
947.571	1.25
948.301	-1.75
949.031	0.25
949.76	-0.75
950.49	0.25
951.219	2.25
951.948	0.25
952.678	0.25
953.407	-0.75
954.136	0.25
954.865	0.25
955.594	-1.75
956.323	1.25
957.052	0.25
957.78	0.25
958.509	0.25
959.238	1.25
959.966	-1.75
960.695	0.25
961.423	2.25
962.151	-0.75
962.88	-0.75
963.608	-1.75
964.336	2.25
965.064	1.25
965.792	0.25
966.52	0.25
967.247	-0.75
967.975	-0.75
968.703	0.25
969.43	-0.75
970.158	-0.75
970.885	2.25
971.613	1.25
972.34	-3.75
973.067	2.25
973.794	0.25
974.521	1.25
975.248	-0.75
975.975	0.25
976.702	-0.75
977.429	1.25
978.156	0.25
978.882	0.25
979.609	2.25
980.335	-0.75
981.062	0.25
981.788	1.25
982.514	0.25
983.24	1.25
983.967	-0.75
984.693	-1.75
985.419	-1.75
986.144	1.25
986.87	-2.75
987.596	-0.75
988.322	-0.75
989.047	-0.75
989.773	2.25
990.498	-2.75
991.224	0.25
991.949	-0.75
992.674	1.25
993.399	1.25
994.124	0.25
994.849	1.25
995.574	0.25
996.299	0.25
997.024	2.25
997.749	-2.75
998.473	1.25
999.198	-0.75
999.922	-0.75
1000.647	1.25
1001.371	5.25
1002.095	-0.75
1002.82	-1.75
1003.544	-0.75
1004.268	0.25
1004.992	2.25
1005.716	1.25
1006.439	4.25
1007.163	1.25
1007.887	6.25
1008.611	2.25
1009.334	-0.75
1010.058	-1.75
1010.781	-1.75
1011.504	-1.75
1012.228	0.25
1012.951	0.25
1013.674	-2.75
1014.397	0.25
1015.12	0.25
