节点500_565_QEPB04081__263__09-54-47-600.txt的数据

Date: Thu Nov 13 09:54:47 CST 2025
User: PC
Spectrometer: QEPB0408
触发模式: 0
积分时间 (秒): 1.000000E-2
Scans to average: 1
启用暗噪声校正: true
启用非线性校正: false
滑动平均宽度: 0
X轴模式: Wavelengths
Number of Pixels in Spectrum: 1044
>>>>>Begin Spectral Data<<<<<
220.843	5.25
221.644	6.25
222.444	7.25
223.244	5.25
224.045	3.25
224.845	7.25
225.645	5.25
226.445	5.25
227.245	6.25
228.045	4.25
228.845	7.25
229.645	5.25
230.444	7.25
231.244	8.25
232.043	7.25
232.843	9.25
233.642	4.25
234.442	7.25
235.241	7.25
236.04	8.25
236.839	6.25
237.638	8.25
238.437	7.25
239.236	8.25
240.035	10.25
240.833	10.25
241.632	11.25
242.43	8.25
243.229	12.25
244.027	12.25
244.826	11.25
245.624	12.25
246.422	12.25
247.22	12.25
248.018	9.25
248.816	12.25
249.614	12.25
250.412	10.25
251.21	16.25
252.007	14.25
252.805	14.25
253.602	13.25
254.4	16.25
255.197	14.25
255.994	16.25
256.791	14.25
257.589	19.25
258.386	15.25
259.183	18.25
259.979	19.25
260.776	21.25
261.573	19.25
262.37	21.25
263.166	23.25
263.963	20.25
264.759	16.25
265.556	20.25
266.352	20.25
267.148	21.25
267.944	22.25
268.74	26.25
269.536	23.25
270.332	21.25
271.128	25.25
271.924	27.25
272.719	25.25
273.515	26.25
274.311	22.25
275.106	28.25
275.901	27.25
276.697	29.25
277.492	28.25
278.287	30.25
279.082	29.25
279.877	28.25
280.672	30.25
281.467	29.25
282.262	30.25
283.056	31.25
283.851	30.25
284.646	29.25
285.44	29.25
286.234	29.25
287.029	29.25
287.823	29.25
288.617	27.25
289.411	27.25
290.205	29.25
290.999	25.25
291.793	28.25
292.587	25.25
293.381	30.25
294.174	28.25
294.968	27.25
295.761	22.25
296.555	22.25
297.348	26.25
298.141	19.25
298.935	26.25
299.728	22.25
300.521	21.25
301.314	23.25
302.107	20.25
302.899	20.25
303.692	17.25
304.485	18.25
305.277	21.25
306.07	20.25
306.862	21.25
307.655	19.25
308.447	19.25
309.239	18.25
310.031	19.25
310.823	16.25
311.615	17.25
312.407	17.25
313.199	14.25
313.991	15.25
314.783	14.25
315.574	13.25
316.366	15.25
317.157	14.25
317.949	14.25
318.74	10.25
319.531	11.25
320.322	10.25
321.113	12.25
321.904	10.25
322.695	13.25
323.486	11.25
324.277	13.25
325.068	10.25
325.858	11.25
326.649	10.25
327.439	11.25
328.23	11.25
329.02	11.25
329.81	11.25
330.6	12.25
331.391	11.25
332.181	9.25
332.971	8.25
333.76	12.25
334.55	10.25
335.34	10.25
336.13	9.25
336.919	9.25
337.709	11.25
338.498	10.25
339.287	10.25
340.077	10.25
340.866	10.25
341.655	11.25
342.444	10.25
343.233	10.25
344.022	10.25
344.811	14.25
345.6	11.25
346.388	7.25
347.177	9.25
347.965	10.25
348.754	10.25
349.542	9.25
350.33	11.25
351.119	10.25
351.907	10.25
352.695	10.25
353.483	8.25
354.271	10.25
355.059	9.25
355.846	9.25
356.634	8.25
357.422	8.25
358.209	8.25
358.997	6.25
359.784	9.25
360.571	9.25
361.359	10.25
362.146	8.25
362.933	8.25
363.72	6.25
364.507	8.25
365.294	10.25
366.081	6.25
366.867	10.25
367.654	8.25
368.44	8.25
369.227	8.25
370.013	10.25
370.8	8.25
371.586	9.25
372.372	10.25
373.158	6.25
373.944	8.25
374.73	8.25
375.516	10.25
376.302	7.25
377.088	8.25
377.873	9.25
378.659	8.25
379.445	8.25
380.23	7.25
381.015	10.25
381.801	9.25
382.586	7.25
383.371	9.25
384.156	9.25
384.941	11.25
385.726	9.25
386.511	10.25
387.296	11.25
388.08	9.25
388.865	9.25
389.649	7.25
390.434	8.25
391.218	9.25
392.003	10.25
392.787	11.25
393.571	9.25
394.355	10.25
395.139	9.25
395.923	9.25
396.707	8.25
397.491	12.25
398.274	11.25
399.058	13.25
399.842	11.25
400.625	11.25
401.408	12.25
402.192	12.25
402.975	12.25
403.758	10.25
404.541	10.25
405.324	14.25
406.107	14.25
406.89	14.25
407.673	13.25
408.456	13.25
409.238	14.25
410.021	12.25
410.803	17.25
411.586	14.25
412.368	14.25
413.151	14.25
413.933	14.25
414.715	16.25
415.497	17.25
416.279	17.25
417.061	17.25
417.843	17.25
418.624	15.25
419.406	17.25
420.188	20.25
420.969	17.25
421.751	18.25
422.532	18.25
423.313	20.25
424.095	21.25
424.876	22.25
425.657	21.25
426.438	19.25
427.219	20.25
428	20.25
428.78	22.25
429.561	24.25
430.342	23.25
431.122	26.25
431.903	24.25
432.683	26.25
433.464	30.25
434.244	30.25
435.024	30.25
435.804	33.25
436.584	35.25
437.364	36.25
438.144	37.25
438.924	36.25
439.704	41.25
440.483	43.25
441.263	47.25
442.042	48.25
442.822	52.25
443.601	57.25
444.38	61.25
445.16	63.25
445.939	69.25
446.718	76.25
447.497	83.25
448.276	89.25
449.054	93.25
449.833	108.25
450.612	118.25
451.391	128.25
452.169	144.25
452.948	155.25
453.726	173.25
454.504	188.25
455.282	209.25
456.061	235.25
456.839	260.25
457.617	288.25
458.395	325.25
459.172	358.25
459.95	404.25
460.728	445.25
461.506	495.25
462.283	553.25
463.061	621.25
463.838	697.25
464.615	773.25
465.393	859.25
466.17	960.25
466.947	1061.25
467.724	1187.25
468.501	1316.25
469.278	1471.25
470.055	1627.25
470.831	1814.25
471.608	2002.25
472.385	2205.25
473.161	2434.25
473.938	2714.25
474.714	2975.25
475.49	3271.25
476.266	3604.25
477.043	3957.25
477.819	4349.25
478.595	4757.25
479.371	5204.25
480.146	5694.25
480.922	6245.25
481.698	6813.25
482.473	7449.25
483.249	8073.25
484.024	8850.25
484.8	9651.25
485.575	10524.25
486.35	11443.25
487.126	12422.25
487.901	13504.25
488.676	14656.25
489.451	15868.25
490.225	17201.25
491	18522.25
491.775	19887.25
492.55	21360.25
493.324	22874.25
494.099	24373.25
494.873	25953.25
495.647	27657.25
496.422	29276.25
497.196	30851.25
497.97	32392.25
498.744	33755.25
499.518	35027.25
500.292	36280.25
501.066	37473.25
501.839	38518.25
502.613	39291.25
503.387	39977.25
504.16	40347.25
504.934	40573.25
505.707	40552.25
506.48	40407.25
507.253	40113.25
508.027	39396.25
508.8	38516.25
509.573	37607.25
510.346	36655.25
511.118	35554.25
511.891	34619.25
512.664	33302.25
513.437	32016.25
514.209	30789.25
514.982	29581.25
515.754	28375.25
516.526	27181.25
517.298	25962.25
518.071	24983.25
518.843	23973.25
519.615	22970.25
520.387	22006.25
521.159	21208.25
521.93	20329.25
522.702	19518.25
523.474	18677.25
524.245	17955.25
525.017	17282.25
525.788	16420.25
526.56	15623.25
527.331	15028.25
528.102	14313.25
528.873	13540.25
529.644	12894.25
530.415	12303.25
531.186	11626.25
531.957	11064.25
532.728	10507.25
533.498	9915.25
534.269	9413.25
535.039	8889.25
535.81	8400.25
536.58	7958.25
537.351	7534.25
538.121	7097.25
538.891	6745.25
539.661	6356.25
540.431	6025.25
541.201	5680.25
541.971	5394.25
542.741	5108.25
543.51	4842.25
544.28	4587.25
545.05	4395.25
545.819	4150.25
546.588	3962.25
547.358	3762.25
548.127	3573.25
548.896	3415.25
549.665	3238.25
550.434	3058.25
551.203	2921.25
551.972	2767.25
552.741	2603.25
553.51	2454.25
554.278	2314.25
555.047	2171.25
555.815	2080.25
556.584	1979.25
557.352	1864.25
558.121	1746.25
558.889	1646.25
559.657	1552.25
560.425	1467.25
561.193	1384.25
561.961	1326.25
562.729	1248.25
563.496	1186.25
564.264	1121.25
565.032	1069.25
565.799	1002.25
566.567	942.25
567.334	897.25
568.101	846.25
568.869	789.25
569.636	754.25
570.403	719.25
571.17	680.25
571.937	633.25
572.704	601.25
573.471	568.25
574.237	527.25
575.004	502.25
575.771	466.25
576.537	441.25
577.303	428.25
578.07	393.25
578.836	375.25
579.602	353.25
580.368	335.25
581.134	316.25
581.9	307.25
582.666	286.25
583.432	277.25
584.198	264.25
584.964	246.25
585.729	235.25
586.495	225.25
587.26	212.25
588.025	199.25
588.791	190.25
589.556	179.25
590.321	169.25
591.086	163.25
591.851	148.25
592.616	143.25
593.381	141.25
594.146	127.25
594.911	126.25
595.675	119.25
596.44	117.25
597.204	114.25
597.969	107.25
598.733	104.25
599.497	96.25
600.261	91.25
601.025	93.25
601.79	85.25
602.553	80.25
603.317	79.25
604.081	73.25
604.845	73.25
605.609	72.25
606.372	69.25
607.136	65.25
607.899	60.25
608.662	59.25
609.426	56.25
610.189	52.25
610.952	51.25
611.715	49.25
612.478	50.25
613.241	44.25
614.004	45.25
614.767	44.25
615.529	42.25
616.292	41.25
617.055	41.25
617.817	39.25
618.579	37.25
619.342	36.25
620.104	32.25
620.866	32.25
621.628	34.25
622.39	33.25
623.152	32.25
623.914	30.25
624.676	28.25
625.438	28.25
626.199	27.25
626.961	28.25
627.722	26.25
628.484	23.25
629.245	25.25
630.006	23.25
630.768	22.25
631.529	22.25
632.29	21.25
633.051	18.25
633.812	20.25
634.573	20.25
635.333	20.25
636.094	20.25
636.855	17.25
637.615	18.25
638.376	16.25
639.136	19.25
639.896	16.25
640.657	16.25
641.417	17.25
642.177	13.25
642.937	14.25
643.697	15.25
644.457	14.25
645.216	12.25
645.976	14.25
646.736	14.25
647.495	13.25
648.255	13.25
649.014	13.25
649.774	12.25
650.533	10.25
651.292	12.25
652.051	11.25
652.81	12.25
653.569	14.25
654.328	11.25
655.087	14.25
655.846	10.25
656.604	9.25
657.363	13.25
658.121	9.25
658.88	11.25
659.638	9.25
660.397	11.25
661.155	9.25
661.913	9.25
662.671	8.25
663.429	8.25
664.187	9.25
664.945	10.25
665.703	7.25
666.46	7.25
667.218	9.25
667.976	10.25
668.733	8.25
669.49	9.25
670.248	8.25
671.005	10.25
671.762	8.25
672.519	9.25
673.276	10.25
674.033	7.25
674.79	8.25
675.547	5.25
676.304	7.25
677.06	7.25
677.817	8.25
678.574	6.25
679.33	8.25
680.086	8.25
680.843	6.25
681.599	7.25
682.355	7.25
683.111	9.25
683.867	9.25
684.623	7.25
685.379	7.25
686.135	6.25
686.89	9.25
687.646	7.25
688.402	5.25
689.157	6.25
689.912	7.25
690.668	7.25
691.423	6.25
692.178	6.25
692.933	7.25
693.688	8.25
694.443	6.25
695.198	7.25
695.953	9.25
696.708	8.25
697.462	7.25
698.217	7.25
698.972	6.25
699.726	8.25
700.48	5.25
701.235	7.25
701.989	5.25
702.743	7.25
703.497	4.25
704.251	5.25
705.005	6.25
705.759	8.25
706.513	6.25
707.266	7.25
708.02	6.25
708.774	4.25
709.527	5.25
710.28	7.25
711.034	7.25
711.787	7.25
712.54	5.25
713.293	5.25
714.046	4.25
714.799	6.25
715.552	7.25
716.305	7.25
717.058	5.25
717.81	6.25
718.563	8.25
719.315	7.25
720.068	3.25
720.82	5.25
721.573	6.25
722.325	9.25
723.077	6.25
723.829	6.25
724.581	7.25
725.333	8.25
726.085	9.25
726.836	6.25
727.588	5.25
728.34	7.25
729.091	7.25
729.843	7.25
730.594	10.25
731.346	8.25
732.097	7.25
732.848	12.25
733.599	5.25
734.35	9.25
735.101	7.25
735.852	8.25
736.603	8.25
737.354	10.25
738.104	7.25
738.855	6.25
739.605	9.25
740.356	6.25
741.106	10.25
741.856	9.25
742.607	10.25
743.357	10.25
744.107	9.25
744.857	10.25
745.607	6.25
746.357	10.25
747.106	11.25
747.856	10.25
748.606	11.25
749.355	10.25
750.105	12.25
750.854	8.25
751.603	9.25
752.353	11.25
753.102	9.25
753.851	9.25
754.6	11.25
755.349	12.25
756.098	11.25
756.847	9.25
757.595	9.25
758.344	9.25
759.093	10.25
759.841	8.25
760.589	11.25
761.338	12.25
762.086	11.25
762.834	11.25
763.582	9.25
764.331	9.25
765.079	13.25
765.826	10.25
766.574	9.25
767.322	12.25
768.07	11.25
768.817	12.25
769.565	11.25
770.312	14.25
771.06	12.25
771.807	16.25
772.554	12.25
773.302	10.25
774.049	12.25
774.796	14.25
775.543	14.25
776.29	14.25
777.036	12.25
777.783	15.25
778.53	16.25
779.276	15.25
780.023	13.25
780.769	14.25
781.516	13.25
782.262	13.25
783.008	15.25
783.754	13.25
784.5	11.25
785.246	12.25
785.992	11.25
786.738	13.25
787.484	9.25
788.23	15.25
788.975	13.25
789.721	13.25
790.466	14.25
791.212	14.25
791.957	12.25
792.702	16.25
793.447	14.25
794.193	10.25
794.938	14.25
795.683	13.25
796.427	9.25
797.172	11.25
797.917	10.25
798.662	13.25
799.406	11.25
800.151	14.25
800.895	11.25
801.64	12.25
802.384	11.25
803.128	12.25
803.872	10.25
804.616	11.25
805.36	9.25
806.104	9.25
806.848	9.25
807.592	8.25
808.336	9.25
809.079	11.25
809.823	9.25
810.566	8.25
811.31	10.25
812.053	9.25
812.796	10.25
813.539	9.25
814.283	6.25
815.026	8.25
815.769	8.25
816.511	9.25
817.254	6.25
817.997	8.25
818.74	5.25
819.482	7.25
820.225	6.25
820.967	7.25
821.71	6.25
822.452	7.25
823.194	6.25
823.936	8.25
824.678	6.25
825.42	7.25
826.162	8.25
826.904	5.25
827.646	6.25
828.388	7.25
829.129	6.25
829.871	5.25
830.612	4.25
831.354	8.25
832.095	6.25
832.836	5.25
833.577	5.25
834.319	3.25
835.06	7.25
835.801	8.25
836.542	7.25
837.282	8.25
838.023	3.25
838.764	8.25
839.504	5.25
840.245	4.25
840.985	5.25
841.726	7.25
842.466	6.25
843.206	4.25
843.946	5.25
844.687	5.25
845.427	5.25
846.166	3.25
846.906	3.25
847.646	5.25
848.386	4.25
849.125	5.25
849.865	5.25
850.605	5.25
851.344	4.25
852.083	4.25
852.823	6.25
853.562	5.25
854.301	5.25
855.04	5.25
855.779	4.25
856.518	2.25
857.257	4.25
857.995	3.25
858.734	3.25
859.473	5.25
860.211	1.25
860.95	4.25
861.688	4.25
862.426	3.25
863.165	3.25
863.903	2.25
864.641	3.25
865.379	2.25
866.117	2.25
866.855	2.25
867.593	4.25
868.33	3.25
869.068	3.25
869.806	1.25
870.543	2.25
871.28	2.25
872.018	-0.75
872.755	1.25
873.492	0.25
874.229	5.25
874.967	2.25
875.703	5.25
876.44	1.25
877.177	1.25
877.914	3.25
878.651	2.25
879.387	0.25
880.124	2.25
880.86	1.25
881.597	2.25
882.333	1.25
883.069	3.25
883.806	2.25
884.542	1.25
885.278	0.25
886.014	3.25
886.749	1.25
887.485	0.25
888.221	4.25
888.957	1.25
889.692	3.25
890.428	1.25
891.163	1.25
891.899	2.25
892.634	1.25
893.369	2.25
894.104	0.25
894.839	2.25
895.574	1.25
896.309	1.25
897.044	2.25
897.779	0.25
898.514	0.25
899.248	1.25
899.983	2.25
900.717	1.25
901.452	1.25
902.186	3.25
902.92	1.25
903.654	5.25
904.389	-0.75
905.123	2.25
905.857	1.25
906.59	3.25
907.324	3.25
908.058	2.25
908.792	3.25
909.525	0.25
910.259	1.25
910.992	0.25
911.726	2.25
912.459	2.25
913.192	2.25
913.925	1.25
914.658	1.25
915.391	1.25
916.124	1.25
916.857	-0.75
917.59	-1.75
918.323	2.25
919.055	1.25
919.788	2.25
920.521	1.25
921.253	2.25
921.985	3.25
922.718	1.25
923.45	0.25
924.182	1.25
924.914	0.25
925.646	2.25
926.378	2.25
927.11	1.25
927.841	0.25
928.573	1.25
929.305	2.25
930.036	1.25
930.768	1.25
931.499	1.25
932.23	2.25
932.962	1.25
933.693	1.25
934.424	1.25
935.155	1.25
935.886	3.25
936.617	1.25
937.348	3.25
938.078	2.25
938.809	2.25
939.54	0.25
940.27	3.25
941.001	0.25
941.731	2.25
942.461	0.25
943.191	1.25
943.922	0.25
944.652	0.25
945.382	1.25
946.112	3.25
946.841	-0.75
947.571	1.25
948.301	2.25
949.031	1.25
949.76	3.25
950.49	-0.75
951.219	-1.75
951.948	0.25
952.678	1.25
953.407	0.25
954.136	1.25
954.865	1.25
955.594	1.25
956.323	1.25
957.052	1.25
957.78	2.25
958.509	0.25
959.238	3.25
959.966	1.25
960.695	1.25
961.423	2.25
962.151	0.25
962.88	2.25
963.608	0.25
964.336	1.25
965.064	1.25
965.792	0.25
966.52	1.25
967.247	1.25
967.975	2.25
968.703	-2.75
969.43	0.25
970.158	0.25
970.885	1.25
971.613	1.25
972.34	2.25
973.067	1.25
973.794	0.25
974.521	-0.75
975.248	1.25
975.975	2.25
976.702	0.25
977.429	1.25
978.156	1.25
978.882	1.25
979.609	0.25
980.335	-0.75
981.062	1.25
981.788	-0.75
982.514	2.25
983.24	1.25
983.967	2.25
984.693	0.25
985.419	0.25
986.144	0.25
986.87	1.25
987.596	0.25
988.322	-0.75
989.047	0.25
989.773	3.25
990.498	0.25
991.224	0.25
991.949	1.25
992.674	-0.75
993.399	2.25
994.124	1.25
994.849	1.25
995.574	0.25
996.299	1.25
997.024	4.25
997.749	0.25
998.473	1.25
999.198	2.25
999.922	1.25
1000.647	0.25
1001.371	1.25
1002.095	-0.75
1002.82	-0.75
1003.544	-0.75
1004.268	1.25
1004.992	3.25
1005.716	7.25
1006.439	2.25
1007.163	5.25
1007.887	4.25
1008.611	1.25
1009.334	0.25
1010.058	1.25
1010.781	3.25
1011.504	1.25
1012.228	3.25
1012.951	-0.75
1013.674	1.25
1014.397	2.25
1015.12	-1.75
