节点500_565_QEPB04081__498__09-58-42-118.txt的数据

Date: Thu Nov 13 09:58:42 CST 2025
User: PC
Spectrometer: QEPB0408
触发模式: 0
积分时间 (秒): 1.000000E-2
Scans to average: 1
启用暗噪声校正: true
启用非线性校正: false
滑动平均宽度: 0
X轴模式: Wavelengths
Number of Pixels in Spectrum: 1044
>>>>>Begin Spectral Data<<<<<
220.843	1.62
221.644	6.62
222.444	0.62
223.244	3.62
224.045	6.62
224.845	3.62
225.645	4.62
226.445	4.62
227.245	3.62
228.045	4.62
228.845	5.62
229.645	3.62
230.444	6.62
231.244	6.62
232.043	5.62
232.843	5.62
233.642	5.62
234.442	7.62
235.241	8.62
236.04	6.62
236.839	8.62
237.638	7.62
238.437	8.62
239.236	6.62
240.035	8.62
240.833	6.62
241.632	7.62
242.43	8.62
243.229	9.62
244.027	8.62
244.826	6.62
245.624	12.62
246.422	11.62
247.22	10.62
248.018	11.62
248.816	9.62
249.614	11.62
250.412	10.62
251.21	13.62
252.007	10.62
252.805	10.62
253.602	13.62
254.4	12.62
255.197	12.62
255.994	13.62
256.791	14.62
257.589	15.62
258.386	15.62
259.183	18.62
259.979	16.62
260.776	14.62
261.573	15.62
262.37	18.62
263.166	15.62
263.963	19.62
264.759	18.62
265.556	21.62
266.352	18.62
267.148	23.62
267.944	17.62
268.74	20.62
269.536	23.62
270.332	22.62
271.128	23.62
271.924	22.62
272.719	23.62
273.515	24.62
274.311	25.62
275.106	23.62
275.901	26.62
276.697	28.62
277.492	26.62
278.287	26.62
279.082	26.62
279.877	28.62
280.672	24.62
281.467	28.62
282.262	26.62
283.056	29.62
283.851	28.62
284.646	27.62
285.44	26.62
286.234	28.62
287.029	25.62
287.823	26.62
288.617	24.62
289.411	26.62
290.205	25.62
290.999	24.62
291.793	24.62
292.587	27.62
293.381	25.62
294.174	24.62
294.968	23.62
295.761	25.62
296.555	23.62
297.348	22.62
298.141	21.62
298.935	26.62
299.728	21.62
300.521	24.62
301.314	21.62
302.107	16.62
302.899	19.62
303.692	17.62
304.485	19.62
305.277	19.62
306.07	19.62
306.862	18.62
307.655	16.62
308.447	18.62
309.239	16.62
310.031	18.62
310.823	18.62
311.615	13.62
312.407	14.62
313.199	17.62
313.991	14.62
314.783	14.62
315.574	15.62
316.366	13.62
317.157	14.62
317.949	13.62
318.74	12.62
319.531	11.62
320.322	11.62
321.113	14.62
321.904	10.62
322.695	10.62
323.486	11.62
324.277	9.62
325.068	11.62
325.858	12.62
326.649	13.62
327.439	9.62
328.23	11.62
329.02	11.62
329.81	12.62
330.6	9.62
331.391	9.62
332.181	10.62
332.971	7.62
333.76	9.62
334.55	10.62
335.34	9.62
336.13	10.62
336.919	9.62
337.709	8.62
338.498	10.62
339.287	11.62
340.077	12.62
340.866	9.62
341.655	10.62
342.444	9.62
343.233	10.62
344.022	8.62
344.811	8.62
345.6	7.62
346.388	7.62
347.177	9.62
347.965	8.62
348.754	4.62
349.542	8.62
350.33	9.62
351.119	7.62
351.907	7.62
352.695	9.62
353.483	8.62
354.271	10.62
355.059	6.62
355.846	6.62
356.634	6.62
357.422	8.62
358.209	8.62
358.997	6.62
359.784	6.62
360.571	7.62
361.359	8.62
362.146	7.62
362.933	7.62
363.72	9.62
364.507	7.62
365.294	8.62
366.081	7.62
366.867	8.62
367.654	7.62
368.44	7.62
369.227	8.62
370.013	6.62
370.8	8.62
371.586	6.62
372.372	7.62
373.158	8.62
373.944	6.62
374.73	7.62
375.516	7.62
376.302	6.62
377.088	6.62
377.873	8.62
378.659	6.62
379.445	5.62
380.23	8.62
381.015	7.62
381.801	8.62
382.586	5.62
383.371	8.62
384.156	8.62
384.941	7.62
385.726	7.62
386.511	7.62
387.296	9.62
388.08	6.62
388.865	9.62
389.649	9.62
390.434	7.62
391.218	8.62
392.003	9.62
392.787	10.62
393.571	8.62
394.355	11.62
395.139	9.62
395.923	11.62
396.707	8.62
397.491	12.62
398.274	9.62
399.058	10.62
399.842	12.62
400.625	10.62
401.408	12.62
402.192	12.62
402.975	10.62
403.758	12.62
404.541	12.62
405.324	14.62
406.107	10.62
406.89	11.62
407.673	11.62
408.456	11.62
409.238	13.62
410.021	13.62
410.803	13.62
411.586	12.62
412.368	11.62
413.151	12.62
413.933	16.62
414.715	13.62
415.497	17.62
416.279	14.62
417.061	11.62
417.843	15.62
418.624	19.62
419.406	15.62
420.188	16.62
420.969	16.62
421.751	16.62
422.532	15.62
423.313	19.62
424.095	20.62
424.876	18.62
425.657	19.62
426.438	20.62
427.219	20.62
428	20.62
428.78	23.62
429.561	21.62
430.342	25.62
431.122	23.62
431.903	25.62
432.683	25.62
433.464	27.62
434.244	30.62
435.024	30.62
435.804	31.62
436.584	33.62
437.364	35.62
438.144	38.62
438.924	39.62
439.704	45.62
440.483	45.62
441.263	50.62
442.042	52.62
442.822	53.62
443.601	58.62
444.38	65.62
445.16	66.62
445.939	70.62
446.718	82.62
447.497	87.62
448.276	97.62
449.054	102.62
449.833	114.62
450.612	125.62
451.391	138.62
452.169	158.62
452.948	171.62
453.726	188.62
454.504	212.62
455.282	236.62
456.061	264.62
456.839	289.62
457.617	320.62
458.395	356.62
459.172	396.62
459.95	438.62
460.728	492.62
461.506	545.62
462.283	605.62
463.061	675.62
463.838	748.62
464.615	834.62
465.393	932.62
466.17	1034.62
466.947	1149.62
467.724	1276.62
468.501	1401.62
469.278	1555.62
470.055	1728.62
470.831	1890.62
471.608	2086.62
472.385	2300.62
473.161	2523.62
473.938	2783.62
474.714	3039.62
475.49	3336.62
476.266	3636.62
477.043	3998.62
477.819	4337.62
478.595	4779.62
479.371	5178.62
480.146	5614.62
480.922	6115.62
481.698	6704.62
482.473	7227.62
483.249	7847.62
484.024	8501.62
484.8	9217.62
485.575	10032.62
486.35	10811.62
487.126	11736.62
487.901	12693.62
488.676	13639.62
489.451	14738.62
490.225	15878.62
491	17078.62
491.775	18298.62
492.55	19627.62
493.324	21008.62
494.099	22354.62
494.873	23777.62
495.647	25281.62
496.422	26764.62
497.196	28224.62
497.97	29623.62
498.744	30995.62
499.518	32363.62
500.292	33615.62
501.066	34788.62
501.839	35858.62
502.613	36765.62
503.387	37538.62
504.16	38264.62
504.934	38706.62
505.707	38996.62
506.48	39011.62
507.253	38937.62
508.027	38522.62
508.8	38090.62
509.573	37454.62
510.346	36709.62
511.118	35800.62
511.891	34961.62
512.664	33952.62
513.437	32861.62
514.209	31679.62
514.982	30568.62
515.754	29460.62
516.526	28263.62
517.298	27135.62
518.071	26109.62
518.843	25027.62
519.615	23993.62
520.387	22999.62
521.159	22231.62
521.93	21288.62
522.702	20440.62
523.474	19617.62
524.245	18857.62
525.017	18042.62
525.788	17285.62
526.56	16538.62
527.331	15821.62
528.102	15143.62
528.873	14449.62
529.644	13726.62
530.415	13060.62
531.186	12440.62
531.957	11851.62
532.728	11283.62
533.498	10709.62
534.269	10124.62
535.039	9581.62
535.81	9065.62
536.58	8610.62
537.351	8152.62
538.121	7722.62
538.891	7299.62
539.661	6914.62
540.431	6570.62
541.201	6221.62
541.971	5879.62
542.741	5543.62
543.51	5287.62
544.28	4985.62
545.05	4768.62
545.819	4534.62
546.588	4328.62
547.358	4107.62
548.127	3917.62
548.896	3730.62
549.665	3543.62
550.434	3346.62
551.203	3182.62
551.972	2995.62
552.741	2850.62
553.51	2710.62
554.278	2524.62
555.047	2410.62
555.815	2276.62
556.584	2166.62
557.352	2049.62
558.121	1932.62
558.889	1820.62
559.657	1717.62
560.425	1612.62
561.193	1538.62
561.961	1452.62
562.729	1373.62
563.496	1302.62
564.264	1229.62
565.032	1176.62
565.799	1107.62
566.567	1047.62
567.334	989.62
568.101	928.62
568.869	877.62
569.636	829.62
570.403	782.62
571.17	735.62
571.937	708.62
572.704	659.62
573.471	629.62
574.237	578.62
575.004	554.62
575.771	520.62
576.537	498.62
577.303	470.62
578.07	437.62
578.836	415.62
579.602	391.62
580.368	375.62
581.134	356.62
581.9	335.62
582.666	322.62
583.432	302.62
584.198	285.62
584.964	275.62
585.729	256.62
586.495	240.62
587.26	233.62
588.025	217.62
588.791	207.62
589.556	196.62
590.321	189.62
591.086	177.62
591.851	169.62
592.616	158.62
593.381	150.62
594.146	140.62
594.911	136.62
595.675	133.62
596.44	127.62
597.204	121.62
597.969	115.62
598.733	108.62
599.497	106.62
600.261	99.62
601.025	95.62
601.79	96.62
602.553	85.62
603.317	86.62
604.081	81.62
604.845	75.62
605.609	76.62
606.372	73.62
607.136	69.62
607.899	68.62
608.662	63.62
609.426	60.62
610.189	58.62
610.952	59.62
611.715	54.62
612.478	52.62
613.241	47.62
614.004	52.62
614.767	48.62
615.529	40.62
616.292	46.62
617.055	42.62
617.817	37.62
618.579	41.62
619.342	40.62
620.104	37.62
620.866	34.62
621.628	32.62
622.39	34.62
623.152	34.62
623.914	34.62
624.676	29.62
625.438	28.62
626.199	28.62
626.961	28.62
627.722	26.62
628.484	22.62
629.245	26.62
630.006	22.62
630.768	21.62
631.529	23.62
632.29	23.62
633.051	20.62
633.812	21.62
634.573	18.62
635.333	20.62
636.094	18.62
636.855	22.62
637.615	17.62
638.376	16.62
639.136	16.62
639.896	15.62
640.657	16.62
641.417	14.62
642.177	14.62
642.937	16.62
643.697	16.62
644.457	14.62
645.216	13.62
645.976	16.62
646.736	13.62
647.495	12.62
648.255	11.62
649.014	11.62
649.774	10.62
650.533	9.62
651.292	14.62
652.051	9.62
652.81	11.62
653.569	8.62
654.328	12.62
655.087	11.62
655.846	11.62
656.604	10.62
657.363	8.62
658.121	12.62
658.88	10.62
659.638	8.62
660.397	9.62
661.155	7.62
661.913	11.62
662.671	9.62
663.429	11.62
664.187	8.62
664.945	9.62
665.703	9.62
666.46	5.62
667.218	8.62
667.976	5.62
668.733	8.62
669.49	7.62
670.248	9.62
671.005	10.62
671.762	8.62
672.519	8.62
673.276	7.62
674.033	8.62
674.79	4.62
675.547	8.62
676.304	8.62
677.06	7.62
677.817	6.62
678.574	5.62
679.33	5.62
680.086	4.62
680.843	8.62
681.599	7.62
682.355	5.62
683.111	6.62
683.867	6.62
684.623	6.62
685.379	6.62
686.135	8.62
686.89	6.62
687.646	6.62
688.402	8.62
689.157	8.62
689.912	4.62
690.668	7.62
691.423	6.62
692.178	5.62
692.933	7.62
693.688	4.62
694.443	7.62
695.198	8.62
695.953	4.62
696.708	8.62
697.462	5.62
698.217	6.62
698.972	6.62
699.726	4.62
700.48	4.62
701.235	6.62
701.989	5.62
702.743	5.62
703.497	6.62
704.251	7.62
705.005	6.62
705.759	6.62
706.513	6.62
707.266	6.62
708.02	6.62
708.774	5.62
709.527	7.62
710.28	3.62
711.034	4.62
711.787	5.62
712.54	5.62
713.293	5.62
714.046	6.62
714.799	3.62
715.552	5.62
716.305	3.62
717.058	5.62
717.81	6.62
718.563	8.62
719.315	3.62
720.068	7.62
720.82	7.62
721.573	7.62
722.325	5.62
723.077	6.62
723.829	5.62
724.581	7.62
725.333	6.62
726.085	6.62
726.836	7.62
727.588	8.62
728.34	6.62
729.091	6.62
729.843	6.62
730.594	6.62
731.346	4.62
732.097	6.62
732.848	7.62
733.599	6.62
734.35	5.62
735.101	7.62
735.852	5.62
736.603	7.62
737.354	7.62
738.104	7.62
738.855	8.62
739.605	6.62
740.356	7.62
741.106	8.62
741.856	6.62
742.607	6.62
743.357	7.62
744.107	7.62
744.857	5.62
745.607	7.62
746.357	9.62
747.106	8.62
747.856	7.62
748.606	9.62
749.355	6.62
750.105	8.62
750.854	9.62
751.603	6.62
752.353	10.62
753.102	8.62
753.851	10.62
754.6	9.62
755.349	9.62
756.098	9.62
756.847	9.62
757.595	8.62
758.344	10.62
759.093	9.62
759.841	11.62
760.589	9.62
761.338	11.62
762.086	7.62
762.834	9.62
763.582	9.62
764.331	9.62
765.079	12.62
765.826	9.62
766.574	10.62
767.322	11.62
768.07	10.62
768.817	6.62
769.565	9.62
770.312	9.62
771.06	11.62
771.807	11.62
772.554	10.62
773.302	10.62
774.049	12.62
774.796	12.62
775.543	10.62
776.29	12.62
777.036	13.62
777.783	12.62
778.53	12.62
779.276	14.62
780.023	12.62
780.769	13.62
781.516	12.62
782.262	12.62
783.008	11.62
783.754	11.62
784.5	12.62
785.246	13.62
785.992	13.62
786.738	11.62
787.484	10.62
788.23	13.62
788.975	12.62
789.721	10.62
790.466	14.62
791.212	9.62
791.957	13.62
792.702	12.62
793.447	12.62
794.193	13.62
794.938	9.62
795.683	12.62
796.427	8.62
797.172	8.62
797.917	10.62
798.662	9.62
799.406	11.62
800.151	11.62
800.895	8.62
801.64	8.62
802.384	10.62
803.128	10.62
803.872	8.62
804.616	10.62
805.36	8.62
806.104	9.62
806.848	8.62
807.592	9.62
808.336	10.62
809.079	8.62
809.823	7.62
810.566	6.62
811.31	9.62
812.053	4.62
812.796	6.62
813.539	9.62
814.283	6.62
815.026	7.62
815.769	4.62
816.511	5.62
817.254	6.62
817.997	8.62
818.74	6.62
819.482	7.62
820.225	5.62
820.967	5.62
821.71	4.62
822.452	5.62
823.194	6.62
823.936	6.62
824.678	5.62
825.42	5.62
826.162	6.62
826.904	6.62
827.646	6.62
828.388	6.62
829.129	6.62
829.871	6.62
830.612	6.62
831.354	3.62
832.095	4.62
832.836	7.62
833.577	7.62
834.319	4.62
835.06	3.62
835.801	3.62
836.542	4.62
837.282	5.62
838.023	3.62
838.764	6.62
839.504	6.62
840.245	4.62
840.985	5.62
841.726	5.62
842.466	1.62
843.206	2.62
843.946	6.62
844.687	5.62
845.427	4.62
846.166	5.62
846.906	3.62
847.646	2.62
848.386	4.62
849.125	2.62
849.865	2.62
850.605	3.62
851.344	2.62
852.083	6.62
852.823	3.62
853.562	2.62
854.301	6.62
855.04	3.62
855.779	2.62
856.518	3.62
857.257	2.62
857.995	4.62
858.734	2.62
859.473	2.62
860.211	0.62
860.95	2.62
861.688	2.62
862.426	3.62
863.165	-0.38
863.903	1.62
864.641	3.62
865.379	0.62
866.117	2.62
866.855	2.62
867.593	2.62
868.33	1.62
869.068	2.62
869.806	2.62
870.543	0.62
871.28	3.62
872.018	2.62
872.755	1.62
873.492	3.62
874.229	2.62
874.967	2.62
875.703	1.62
876.44	1.62
877.177	1.62
877.914	2.62
878.651	1.62
879.387	0.62
880.124	-0.38
880.86	-0.38
881.597	1.62
882.333	1.62
883.069	2.62
883.806	1.62
884.542	1.62
885.278	-0.38
886.014	0.62
886.749	0.62
887.485	2.62
888.221	2.62
888.957	3.62
889.692	-0.38
890.428	0.62
891.163	-0.38
891.899	0.62
892.634	-0.38
893.369	0.62
894.104	1.62
894.839	-0.38
895.574	0.62
896.309	2.62
897.044	-0.38
897.779	-1.38
898.514	-0.38
899.248	0.62
899.983	-0.38
900.717	1.62
901.452	0.62
902.186	0.62
902.92	-0.38
903.654	-0.38
904.389	0.62
905.123	0.62
905.857	2.62
906.59	0.62
907.324	0.62
908.058	1.62
908.792	0.62
909.525	0.62
910.259	0.62
910.992	0.62
911.726	0.62
912.459	2.62
913.192	-1.38
913.925	1.62
914.658	0.62
915.391	-0.38
916.124	-1.38
916.857	3.62
917.59	-1.38
918.323	0.62
919.055	0.62
919.788	-0.38
920.521	1.62
921.253	2.62
921.985	-2.38
922.718	0.62
923.45	0.62
924.182	2.62
924.914	1.62
925.646	0.62
926.378	-0.38
927.11	1.62
927.841	-0.38
928.573	0.62
929.305	1.62
930.036	-0.38
930.768	0.62
931.499	-0.38
932.23	0.62
932.962	0.62
933.693	-2.38
934.424	2.62
935.155	1.62
935.886	0.62
936.617	0.62
937.348	0.62
938.078	0.62
938.809	-1.38
939.54	0.62
940.27	-2.38
941.001	0.62
941.731	0.62
942.461	0.62
943.191	2.62
943.922	-1.38
944.652	0.62
945.382	-2.38
946.112	2.62
946.841	0.62
947.571	1.62
948.301	0.62
949.031	0.62
949.76	-0.38
950.49	0.62
951.219	1.62
951.948	-0.38
952.678	-0.38
953.407	-2.38
954.136	0.62
954.865	0.62
955.594	-2.38
956.323	0.62
957.052	-1.38
957.78	-0.38
958.509	0.62
959.238	-0.38
959.966	1.62
960.695	0.62
961.423	0.62
962.151	0.62
962.88	0.62
963.608	-0.38
964.336	-0.38
965.064	-0.38
965.792	0.62
966.52	-0.38
967.247	0.62
967.975	0.62
968.703	2.62
969.43	-0.38
970.158	0.62
970.885	0.62
971.613	-1.38
972.34	-0.38
973.067	-1.38
973.794	-0.38
974.521	-0.38
975.248	2.62
975.975	-1.38
976.702	0.62
977.429	-2.38
978.156	0.62
978.882	-0.38
979.609	2.62
980.335	0.62
981.062	1.62
981.788	-0.38
982.514	0.62
983.24	0.62
983.967	-1.38
984.693	0.62
985.419	2.62
986.144	0.62
986.87	0.62
987.596	0.62
988.322	-0.38
989.047	-0.38
989.773	0.62
990.498	-0.38
991.224	-1.38
991.949	0.62
992.674	-2.38
993.399	0.62
994.124	0.62
994.849	0.62
995.574	-2.38
996.299	-2.38
997.024	0.62
997.749	-0.38
998.473	0.62
999.198	0.62
999.922	0.62
1000.647	0.62
1001.371	4.62
1002.095	-0.38
1002.82	0.62
1003.544	-3.38
1004.268	3.62
1004.992	3.62
1005.716	1.62
1006.439	2.62
1007.163	2.62
1007.887	2.62
1008.611	-0.38
1009.334	0.62
1010.058	-0.38
1010.781	0.62
1011.504	0.62
1012.228	-1.38
1012.951	-0.38
1013.674	0.62
1014.397	-0.38
1015.12	-1.38
