节点500_565_QEPB04081__330__09-55-54-445.txt的数据

Date: Thu Nov 13 09:55:54 CST 2025
User: PC
Spectrometer: QEPB0408
触发模式: 0
积分时间 (秒): 1.000000E-2
Scans to average: 1
启用暗噪声校正: true
启用非线性校正: false
滑动平均宽度: 0
X轴模式: Wavelengths
Number of Pixels in Spectrum: 1044
>>>>>Begin Spectral Data<<<<<
220.843	2.38
221.644	6.38
222.444	3.38
223.244	6.38
224.045	7.38
224.845	5.38
225.645	1.38
226.445	4.38
227.245	4.38
228.045	5.38
228.845	7.38
229.645	4.38
230.444	4.38
231.244	6.38
232.043	5.38
232.843	6.38
233.642	5.38
234.442	8.38
235.241	6.38
236.04	7.38
236.839	10.38
237.638	6.38
238.437	7.38
239.236	8.38
240.035	8.38
240.833	7.38
241.632	9.38
242.43	9.38
243.229	11.38
244.027	11.38
244.826	9.38
245.624	11.38
246.422	8.38
247.22	13.38
248.018	12.38
248.816	11.38
249.614	9.38
250.412	10.38
251.21	16.38
252.007	12.38
252.805	14.38
253.602	13.38
254.4	16.38
255.197	14.38
255.994	14.38
256.791	13.38
257.589	17.38
258.386	16.38
259.183	16.38
259.979	18.38
260.776	17.38
261.573	20.38
262.37	16.38
263.166	18.38
263.963	24.38
264.759	19.38
265.556	20.38
266.352	19.38
267.148	20.38
267.944	22.38
268.74	20.38
269.536	22.38
270.332	26.38
271.128	24.38
271.924	23.38
272.719	27.38
273.515	24.38
274.311	24.38
275.106	27.38
275.901	25.38
276.697	25.38
277.492	27.38
278.287	27.38
279.082	27.38
279.877	25.38
280.672	27.38
281.467	29.38
282.262	25.38
283.056	29.38
283.851	25.38
284.646	28.38
285.44	24.38
286.234	26.38
287.029	26.38
287.823	28.38
288.617	26.38
289.411	28.38
290.205	28.38
290.999	30.38
291.793	27.38
292.587	28.38
293.381	27.38
294.174	26.38
294.968	24.38
295.761	23.38
296.555	21.38
297.348	20.38
298.141	21.38
298.935	22.38
299.728	21.38
300.521	21.38
301.314	19.38
302.107	19.38
302.899	20.38
303.692	16.38
304.485	18.38
305.277	16.38
306.07	18.38
306.862	17.38
307.655	20.38
308.447	15.38
309.239	17.38
310.031	20.38
310.823	16.38
311.615	16.38
312.407	15.38
313.199	16.38
313.991	14.38
314.783	13.38
315.574	12.38
316.366	13.38
317.157	13.38
317.949	12.38
318.74	11.38
319.531	10.38
320.322	10.38
321.113	13.38
321.904	13.38
322.695	12.38
323.486	10.38
324.277	12.38
325.068	10.38
325.858	13.38
326.649	8.38
327.439	7.38
328.23	9.38
329.02	9.38
329.81	10.38
330.6	9.38
331.391	6.38
332.181	11.38
332.971	9.38
333.76	8.38
334.55	10.38
335.34	10.38
336.13	9.38
336.919	8.38
337.709	9.38
338.498	5.38
339.287	9.38
340.077	11.38
340.866	10.38
341.655	10.38
342.444	8.38
343.233	10.38
344.022	10.38
344.811	11.38
345.6	8.38
346.388	8.38
347.177	8.38
347.965	10.38
348.754	11.38
349.542	6.38
350.33	10.38
351.119	8.38
351.907	9.38
352.695	9.38
353.483	8.38
354.271	10.38
355.059	6.38
355.846	9.38
356.634	9.38
357.422	9.38
358.209	9.38
358.997	9.38
359.784	7.38
360.571	8.38
361.359	9.38
362.146	6.38
362.933	8.38
363.72	8.38
364.507	10.38
365.294	8.38
366.081	7.38
366.867	6.38
367.654	9.38
368.44	9.38
369.227	7.38
370.013	8.38
370.8	9.38
371.586	8.38
372.372	6.38
373.158	6.38
373.944	8.38
374.73	8.38
375.516	7.38
376.302	8.38
377.088	8.38
377.873	6.38
378.659	8.38
379.445	8.38
380.23	6.38
381.015	8.38
381.801	10.38
382.586	8.38
383.371	8.38
384.156	8.38
384.941	7.38
385.726	7.38
386.511	7.38
387.296	8.38
388.08	5.38
388.865	6.38
389.649	10.38
390.434	10.38
391.218	5.38
392.003	8.38
392.787	10.38
393.571	8.38
394.355	9.38
395.139	8.38
395.923	11.38
396.707	9.38
397.491	9.38
398.274	13.38
399.058	8.38
399.842	9.38
400.625	8.38
401.408	10.38
402.192	12.38
402.975	11.38
403.758	10.38
404.541	11.38
405.324	11.38
406.107	11.38
406.89	12.38
407.673	13.38
408.456	13.38
409.238	13.38
410.021	15.38
410.803	14.38
411.586	14.38
412.368	14.38
413.151	14.38
413.933	16.38
414.715	16.38
415.497	13.38
416.279	16.38
417.061	15.38
417.843	18.38
418.624	17.38
419.406	18.38
420.188	15.38
420.969	17.38
421.751	19.38
422.532	20.38
423.313	20.38
424.095	20.38
424.876	17.38
425.657	18.38
426.438	20.38
427.219	21.38
428	20.38
428.78	23.38
429.561	23.38
430.342	24.38
431.122	25.38
431.903	25.38
432.683	27.38
433.464	26.38
434.244	27.38
435.024	32.38
435.804	33.38
436.584	34.38
437.364	37.38
438.144	34.38
438.924	40.38
439.704	40.38
440.483	42.38
441.263	48.38
442.042	51.38
442.822	53.38
443.601	56.38
444.38	60.38
445.16	65.38
445.939	69.38
446.718	76.38
447.497	85.38
448.276	93.38
449.054	104.38
449.833	111.38
450.612	121.38
451.391	130.38
452.169	149.38
452.948	160.38
453.726	179.38
454.504	199.38
455.282	220.38
456.061	244.38
456.839	269.38
457.617	308.38
458.395	333.38
459.172	373.38
459.95	428.38
460.728	472.38
461.506	527.38
462.283	591.38
463.061	644.38
463.838	729.38
464.615	810.38
465.393	902.38
466.17	996.38
466.947	1116.38
467.724	1237.38
468.501	1373.38
469.278	1521.38
470.055	1694.38
470.831	1878.38
471.608	2064.38
472.385	2285.38
473.161	2505.38
473.938	2792.38
474.714	3074.38
475.49	3352.38
476.266	3673.38
477.043	4051.38
477.819	4437.38
478.595	4850.38
479.371	5303.38
480.146	5784.38
480.922	6356.38
481.698	6929.38
482.473	7503.38
483.249	8153.38
484.024	8896.38
484.8	9691.38
485.575	10573.38
486.35	11411.38
487.126	12410.38
487.901	13461.38
488.676	14622.38
489.451	15822.38
490.225	17053.38
491	18364.38
491.775	19709.38
492.55	21181.38
493.324	22680.38
494.099	24098.38
494.873	25705.38
495.647	27313.38
496.422	29001.38
497.196	30495.38
497.97	32126.38
498.744	33562.38
499.518	34850.38
500.292	36179.38
501.066	37391.38
501.839	38494.38
502.613	39237.38
503.387	39971.38
504.16	40522.38
504.934	40888.38
505.707	40749.38
506.48	40766.38
507.253	40499.38
508.027	39916.38
508.8	39223.38
509.573	38343.38
510.346	37508.38
511.118	36399.38
511.891	35386.38
512.664	34166.38
513.437	32919.38
514.209	31638.38
514.982	30457.38
515.754	29285.38
516.526	28039.38
517.298	26835.38
518.071	25793.38
518.843	24795.38
519.615	23746.38
520.387	22784.38
521.159	21979.38
521.93	21028.38
522.702	20130.38
523.474	19424.38
524.245	18626.38
525.017	17817.38
525.788	17057.38
526.56	16278.38
527.331	15578.38
528.102	14888.38
528.873	14100.38
529.644	13452.38
530.415	12750.38
531.186	12125.38
531.957	11545.38
532.728	10958.38
533.498	10359.38
534.269	9808.38
535.039	9245.38
535.81	8778.38
536.58	8343.38
537.351	7880.38
538.121	7419.38
538.891	7036.38
539.661	6684.38
540.431	6308.38
541.201	5955.38
541.971	5655.38
542.741	5366.38
543.51	5055.38
544.28	4826.38
545.05	4618.38
545.819	4382.38
546.588	4154.38
547.358	3971.38
548.127	3766.38
548.896	3567.38
549.665	3406.38
550.434	3216.38
551.203	3042.38
551.972	2901.38
552.741	2719.38
553.51	2573.38
554.278	2456.38
555.047	2303.38
555.815	2165.38
556.584	2073.38
557.352	1958.38
558.121	1831.38
558.889	1721.38
559.657	1636.38
560.425	1545.38
561.193	1468.38
561.961	1385.38
562.729	1308.38
563.496	1243.38
564.264	1173.38
565.032	1118.38
565.799	1051.38
566.567	996.38
567.334	941.38
568.101	881.38
568.869	841.38
569.636	797.38
570.403	753.38
571.17	700.38
571.937	670.38
572.704	625.38
573.471	590.38
574.237	569.38
575.004	531.38
575.771	495.38
576.537	469.38
577.303	444.38
578.07	418.38
578.836	391.38
579.602	377.38
580.368	357.38
581.134	337.38
581.9	322.38
582.666	304.38
583.432	290.38
584.198	266.38
584.964	260.38
585.729	247.38
586.495	232.38
587.26	216.38
588.025	205.38
588.791	199.38
589.556	191.38
590.321	171.38
591.086	173.38
591.851	161.38
592.616	155.38
593.381	145.38
594.146	140.38
594.911	127.38
595.675	131.38
596.44	120.38
597.204	117.38
597.969	109.38
598.733	104.38
599.497	101.38
600.261	101.38
601.025	94.38
601.79	87.38
602.553	83.38
603.317	78.38
604.081	77.38
604.845	79.38
605.609	68.38
606.372	66.38
607.136	66.38
607.899	65.38
608.662	65.38
609.426	61.38
610.189	56.38
610.952	56.38
611.715	51.38
612.478	52.38
613.241	49.38
614.004	46.38
614.767	44.38
615.529	43.38
616.292	42.38
617.055	40.38
617.817	40.38
618.579	36.38
619.342	36.38
620.104	37.38
620.866	34.38
621.628	35.38
622.39	31.38
623.152	32.38
623.914	30.38
624.676	31.38
625.438	27.38
626.199	26.38
626.961	24.38
627.722	25.38
628.484	25.38
629.245	24.38
630.006	21.38
630.768	25.38
631.529	24.38
632.29	22.38
633.051	20.38
633.812	22.38
634.573	18.38
635.333	20.38
636.094	20.38
636.855	19.38
637.615	15.38
638.376	16.38
639.136	18.38
639.896	17.38
640.657	16.38
641.417	14.38
642.177	16.38
642.937	14.38
643.697	18.38
644.457	13.38
645.216	13.38
645.976	14.38
646.736	12.38
647.495	12.38
648.255	12.38
649.014	10.38
649.774	11.38
650.533	13.38
651.292	10.38
652.051	11.38
652.81	10.38
653.569	10.38
654.328	11.38
655.087	10.38
655.846	9.38
656.604	11.38
657.363	9.38
658.121	10.38
658.88	10.38
659.638	10.38
660.397	8.38
661.155	9.38
661.913	9.38
662.671	9.38
663.429	8.38
664.187	10.38
664.945	8.38
665.703	7.38
666.46	8.38
667.218	8.38
667.976	5.38
668.733	9.38
669.49	11.38
670.248	10.38
671.005	7.38
671.762	6.38
672.519	11.38
673.276	8.38
674.033	8.38
674.79	6.38
675.547	9.38
676.304	6.38
677.06	6.38
677.817	6.38
678.574	6.38
679.33	6.38
680.086	6.38
680.843	8.38
681.599	6.38
682.355	9.38
683.111	4.38
683.867	6.38
684.623	9.38
685.379	6.38
686.135	6.38
686.89	6.38
687.646	6.38
688.402	8.38
689.157	6.38
689.912	5.38
690.668	5.38
691.423	6.38
692.178	7.38
692.933	7.38
693.688	6.38
694.443	4.38
695.198	4.38
695.953	1.38
696.708	8.38
697.462	7.38
698.217	8.38
698.972	6.38
699.726	7.38
700.48	6.38
701.235	5.38
701.989	6.38
702.743	7.38
703.497	7.38
704.251	6.38
705.005	6.38
705.759	5.38
706.513	6.38
707.266	5.38
708.02	6.38
708.774	5.38
709.527	6.38
710.28	5.38
711.034	6.38
711.787	4.38
712.54	4.38
713.293	4.38
714.046	7.38
714.799	8.38
715.552	7.38
716.305	6.38
717.058	4.38
717.81	6.38
718.563	4.38
719.315	8.38
720.068	7.38
720.82	6.38
721.573	8.38
722.325	4.38
723.077	6.38
723.829	7.38
724.581	7.38
725.333	6.38
726.085	6.38
726.836	6.38
727.588	6.38
728.34	6.38
729.091	5.38
729.843	8.38
730.594	6.38
731.346	7.38
732.097	7.38
732.848	6.38
733.599	7.38
734.35	5.38
735.101	8.38
735.852	7.38
736.603	6.38
737.354	6.38
738.104	7.38
738.855	7.38
739.605	6.38
740.356	8.38
741.106	6.38
741.856	9.38
742.607	6.38
743.357	8.38
744.107	7.38
744.857	7.38
745.607	7.38
746.357	7.38
747.106	8.38
747.856	7.38
748.606	6.38
749.355	9.38
750.105	8.38
750.854	10.38
751.603	7.38
752.353	9.38
753.102	9.38
753.851	5.38
754.6	8.38
755.349	8.38
756.098	8.38
756.847	8.38
757.595	9.38
758.344	8.38
759.093	10.38
759.841	10.38
760.589	9.38
761.338	11.38
762.086	12.38
762.834	12.38
763.582	10.38
764.331	12.38
765.079	10.38
765.826	10.38
766.574	11.38
767.322	11.38
768.07	12.38
768.817	8.38
769.565	11.38
770.312	9.38
771.06	9.38
771.807	10.38
772.554	9.38
773.302	12.38
774.049	12.38
774.796	14.38
775.543	12.38
776.29	13.38
777.036	13.38
777.783	16.38
778.53	14.38
779.276	11.38
780.023	16.38
780.769	13.38
781.516	14.38
782.262	13.38
783.008	11.38
783.754	12.38
784.5	11.38
785.246	12.38
785.992	12.38
786.738	12.38
787.484	13.38
788.23	14.38
788.975	13.38
789.721	11.38
790.466	14.38
791.212	13.38
791.957	14.38
792.702	10.38
793.447	11.38
794.193	13.38
794.938	11.38
795.683	12.38
796.427	12.38
797.172	11.38
797.917	10.38
798.662	13.38
799.406	9.38
800.151	8.38
800.895	9.38
801.64	8.38
802.384	9.38
803.128	9.38
803.872	10.38
804.616	6.38
805.36	9.38
806.104	9.38
806.848	8.38
807.592	6.38
808.336	10.38
809.079	6.38
809.823	7.38
810.566	6.38
811.31	9.38
812.053	7.38
812.796	9.38
813.539	6.38
814.283	10.38
815.026	7.38
815.769	5.38
816.511	6.38
817.254	7.38
817.997	7.38
818.74	6.38
819.482	4.38
820.225	7.38
820.967	5.38
821.71	7.38
822.452	6.38
823.194	5.38
823.936	7.38
824.678	5.38
825.42	6.38
826.162	5.38
826.904	6.38
827.646	6.38
828.388	5.38
829.129	5.38
829.871	3.38
830.612	6.38
831.354	5.38
832.095	6.38
832.836	5.38
833.577	6.38
834.319	4.38
835.06	5.38
835.801	5.38
836.542	4.38
837.282	6.38
838.023	6.38
838.764	4.38
839.504	3.38
840.245	4.38
840.985	3.38
841.726	4.38
842.466	3.38
843.206	3.38
843.946	6.38
844.687	5.38
845.427	2.38
846.166	5.38
846.906	5.38
847.646	5.38
848.386	4.38
849.125	4.38
849.865	5.38
850.605	3.38
851.344	2.38
852.083	4.38
852.823	6.38
853.562	3.38
854.301	2.38
855.04	5.38
855.779	3.38
856.518	2.38
857.257	2.38
857.995	1.38
858.734	0.38
859.473	3.38
860.211	5.38
860.95	4.38
861.688	2.38
862.426	1.38
863.165	2.38
863.903	2.38
864.641	3.38
865.379	0.38
866.117	2.38
866.855	2.38
867.593	1.38
868.33	0.38
869.068	1.38
869.806	4.38
870.543	2.38
871.28	1.38
872.018	3.38
872.755	2.38
873.492	1.38
874.229	4.38
874.967	1.38
875.703	2.38
876.44	2.38
877.177	0.38
877.914	-0.62
878.651	0.38
879.387	1.38
880.124	0.38
880.86	0.38
881.597	0.38
882.333	0.38
883.069	0.38
883.806	1.38
884.542	0.38
885.278	0.38
886.014	0.38
886.749	2.38
887.485	1.38
888.221	0.38
888.957	1.38
889.692	0.38
890.428	0.38
891.163	1.38
891.899	1.38
892.634	2.38
893.369	-0.62
894.104	0.38
894.839	-1.62
895.574	-0.62
896.309	0.38
897.044	1.38
897.779	-0.62
898.514	1.38
899.248	-0.62
899.983	-0.62
900.717	-0.62
901.452	0.38
902.186	0.38
902.92	1.38
903.654	0.38
904.389	0.38
905.123	-0.62
905.857	2.38
906.59	0.38
907.324	0.38
908.058	3.38
908.792	-0.62
909.525	0.38
910.259	2.38
910.992	-1.62
911.726	0.38
912.459	1.38
913.192	-0.62
913.925	0.38
914.658	0.38
915.391	-0.62
916.124	0.38
916.857	0.38
917.59	2.38
918.323	0.38
919.055	0.38
919.788	0.38
920.521	2.38
921.253	0.38
921.985	-0.62
922.718	-1.62
923.45	1.38
924.182	1.38
924.914	-0.62
925.646	0.38
926.378	0.38
927.11	0.38
927.841	2.38
928.573	-2.62
929.305	0.38
930.036	-0.62
930.768	1.38
931.499	0.38
932.23	-0.62
932.962	-1.62
933.693	-2.62
934.424	0.38
935.155	0.38
935.886	-0.62
936.617	1.38
937.348	0.38
938.078	2.38
938.809	0.38
939.54	-1.62
940.27	0.38
941.001	2.38
941.731	-0.62
942.461	0.38
943.191	0.38
943.922	0.38
944.652	0.38
945.382	0.38
946.112	2.38
946.841	-3.62
947.571	0.38
948.301	0.38
949.031	0.38
949.76	-0.62
950.49	-0.62
951.219	1.38
951.948	1.38
952.678	-1.62
953.407	0.38
954.136	-1.62
954.865	-0.62
955.594	-0.62
956.323	-0.62
957.052	0.38
957.78	0.38
958.509	1.38
959.238	-1.62
959.966	0.38
960.695	0.38
961.423	0.38
962.151	1.38
962.88	1.38
963.608	2.38
964.336	0.38
965.064	0.38
965.792	-0.62
966.52	-1.62
967.247	0.38
967.975	0.38
968.703	-1.62
969.43	0.38
970.158	1.38
970.885	-2.62
971.613	2.38
972.34	0.38
973.067	-0.62
973.794	0.38
974.521	-0.62
975.248	-0.62
975.975	0.38
976.702	-1.62
977.429	-1.62
978.156	2.38
978.882	2.38
979.609	1.38
980.335	0.38
981.062	-0.62
981.788	-0.62
982.514	-2.62
983.24	0.38
983.967	-0.62
984.693	-0.62
985.419	-0.62
986.144	-2.62
986.87	-1.62
987.596	0.38
988.322	-0.62
989.047	2.38
989.773	0.38
990.498	-0.62
991.224	0.38
991.949	0.38
992.674	1.38
993.399	2.38
994.124	-1.62
994.849	0.38
995.574	-0.62
996.299	-1.62
997.024	1.38
997.749	-0.62
998.473	-0.62
999.198	-2.62
999.922	-0.62
1000.647	-0.62
1001.371	3.38
1002.095	0.38
1002.82	-0.62
1003.544	-1.62
1004.268	0.38
1004.992	1.38
1005.716	1.38
1006.439	4.38
1007.163	5.38
1007.887	4.38
1008.611	-0.62
1009.334	-0.62
1010.058	-0.62
1010.781	-0.62
1011.504	0.38
1012.228	2.38
1012.951	0.38
1013.674	-0.62
1014.397	-1.62
1015.12	0.38
