节点500_565_QEPB04081__210__09-53-54-832.txt的数据

Date: Thu Nov 13 09:53:54 CST 2025
User: PC
Spectrometer: QEPB0408
触发模式: 0
积分时间 (秒): 1.000000E-2
Scans to average: 1
启用暗噪声校正: true
启用非线性校正: false
滑动平均宽度: 0
X轴模式: Wavelengths
Number of Pixels in Spectrum: 1044
>>>>>Begin Spectral Data<<<<<
220.843	3.62
221.644	6.62
222.444	4.62
223.244	4.62
224.045	4.62
224.845	3.62
225.645	4.62
226.445	4.62
227.245	4.62
228.045	6.62
228.845	4.62
229.645	8.62
230.444	7.62
231.244	8.62
232.043	4.62
232.843	8.62
233.642	6.62
234.442	8.62
235.241	7.62
236.04	7.62
236.839	8.62
237.638	7.62
238.437	8.62
239.236	10.62
240.035	7.62
240.833	8.62
241.632	11.62
242.43	8.62
243.229	6.62
244.027	10.62
244.826	12.62
245.624	12.62
246.422	12.62
247.22	10.62
248.018	10.62
248.816	10.62
249.614	12.62
250.412	12.62
251.21	12.62
252.007	11.62
252.805	15.62
253.602	15.62
254.4	14.62
255.197	15.62
255.994	15.62
256.791	18.62
257.589	19.62
258.386	20.62
259.183	18.62
259.979	20.62
260.776	19.62
261.573	21.62
262.37	18.62
263.166	21.62
263.963	19.62
264.759	23.62
265.556	20.62
266.352	21.62
267.148	19.62
267.944	28.62
268.74	25.62
269.536	24.62
270.332	22.62
271.128	27.62
271.924	30.62
272.719	28.62
273.515	24.62
274.311	31.62
275.106	27.62
275.901	28.62
276.697	29.62
277.492	31.62
278.287	25.62
279.082	28.62
279.877	26.62
280.672	28.62
281.467	29.62
282.262	29.62
283.056	30.62
283.851	25.62
284.646	28.62
285.44	26.62
286.234	30.62
287.029	30.62
287.823	29.62
288.617	28.62
289.411	26.62
290.205	30.62
290.999	27.62
291.793	29.62
292.587	25.62
293.381	26.62
294.174	28.62
294.968	25.62
295.761	26.62
296.555	25.62
297.348	25.62
298.141	23.62
298.935	22.62
299.728	23.62
300.521	20.62
301.314	21.62
302.107	19.62
302.899	21.62
303.692	18.62
304.485	20.62
305.277	19.62
306.07	16.62
306.862	17.62
307.655	20.62
308.447	17.62
309.239	21.62
310.031	16.62
310.823	13.62
311.615	12.62
312.407	16.62
313.199	14.62
313.991	15.62
314.783	14.62
315.574	14.62
316.366	14.62
317.157	13.62
317.949	12.62
318.74	14.62
319.531	11.62
320.322	12.62
321.113	12.62
321.904	13.62
322.695	9.62
323.486	11.62
324.277	10.62
325.068	10.62
325.858	9.62
326.649	7.62
327.439	10.62
328.23	9.62
329.02	12.62
329.81	12.62
330.6	11.62
331.391	10.62
332.181	9.62
332.971	12.62
333.76	7.62
334.55	8.62
335.34	10.62
336.13	10.62
336.919	8.62
337.709	8.62
338.498	8.62
339.287	12.62
340.077	8.62
340.866	9.62
341.655	8.62
342.444	10.62
343.233	8.62
344.022	9.62
344.811	12.62
345.6	7.62
346.388	11.62
347.177	9.62
347.965	9.62
348.754	10.62
349.542	11.62
350.33	8.62
351.119	9.62
351.907	10.62
352.695	10.62
353.483	9.62
354.271	7.62
355.059	10.62
355.846	9.62
356.634	7.62
357.422	8.62
358.209	12.62
358.997	8.62
359.784	8.62
360.571	7.62
361.359	6.62
362.146	7.62
362.933	6.62
363.72	8.62
364.507	5.62
365.294	4.62
366.081	8.62
366.867	7.62
367.654	10.62
368.44	7.62
369.227	9.62
370.013	7.62
370.8	10.62
371.586	6.62
372.372	7.62
373.158	9.62
373.944	7.62
374.73	6.62
375.516	7.62
376.302	9.62
377.088	7.62
377.873	7.62
378.659	10.62
379.445	8.62
380.23	7.62
381.015	6.62
381.801	5.62
382.586	9.62
383.371	9.62
384.156	8.62
384.941	11.62
385.726	9.62
386.511	8.62
387.296	8.62
388.08	8.62
388.865	8.62
389.649	9.62
390.434	9.62
391.218	9.62
392.003	8.62
392.787	9.62
393.571	10.62
394.355	9.62
395.139	12.62
395.923	9.62
396.707	11.62
397.491	10.62
398.274	10.62
399.058	13.62
399.842	11.62
400.625	13.62
401.408	10.62
402.192	8.62
402.975	14.62
403.758	12.62
404.541	12.62
405.324	12.62
406.107	11.62
406.89	11.62
407.673	14.62
408.456	16.62
409.238	15.62
410.021	15.62
410.803	14.62
411.586	16.62
412.368	12.62
413.151	16.62
413.933	14.62
414.715	16.62
415.497	15.62
416.279	16.62
417.061	17.62
417.843	16.62
418.624	20.62
419.406	19.62
420.188	19.62
420.969	18.62
421.751	17.62
422.532	19.62
423.313	16.62
424.095	18.62
424.876	18.62
425.657	24.62
426.438	22.62
427.219	21.62
428	21.62
428.78	23.62
429.561	24.62
430.342	23.62
431.122	23.62
431.903	28.62
432.683	26.62
433.464	26.62
434.244	28.62
435.024	33.62
435.804	33.62
436.584	32.62
437.364	36.62
438.144	37.62
438.924	42.62
439.704	43.62
440.483	41.62
441.263	48.62
442.042	47.62
442.822	50.62
443.601	58.62
444.38	60.62
445.16	65.62
445.939	72.62
446.718	77.62
447.497	78.62
448.276	92.62
449.054	97.62
449.833	105.62
450.612	116.62
451.391	132.62
452.169	141.62
452.948	160.62
453.726	173.62
454.504	190.62
455.282	215.62
456.061	233.62
456.839	263.62
457.617	295.62
458.395	323.62
459.172	362.62
459.95	412.62
460.728	455.62
461.506	509.62
462.283	568.62
463.061	646.62
463.838	707.62
464.615	779.62
465.393	881.62
466.17	975.62
466.947	1091.62
467.724	1235.62
468.501	1364.62
469.278	1515.62
470.055	1658.62
470.831	1848.62
471.608	2054.62
472.385	2279.62
473.161	2516.62
473.938	2785.62
474.714	3070.62
475.49	3396.62
476.266	3734.62
477.043	4112.62
477.819	4524.62
478.595	4967.62
479.371	5415.62
480.146	5961.62
480.922	6533.62
481.698	7146.62
482.473	7790.62
483.249	8566.62
484.024	9304.62
484.8	10117.62
485.575	11105.62
486.35	12038.62
487.126	13095.62
487.901	14257.62
488.676	15426.62
489.451	16790.62
490.225	18152.62
491	19632.62
491.775	21089.62
492.55	22617.62
493.324	24251.62
494.099	25840.62
494.873	27457.62
495.647	29309.62
496.422	31001.62
497.196	32530.62
497.97	34197.62
498.744	35715.62
499.518	37208.62
500.292	38305.62
501.066	39589.62
501.839	40616.62
502.613	41377.62
503.387	42041.62
504.16	42376.62
504.934	42545.62
505.707	42432.62
506.48	42276.62
507.253	41817.62
508.027	41042.62
508.8	40128.62
509.573	39182.62
510.346	38094.62
511.118	36876.62
511.891	35709.62
512.664	34378.62
513.437	33184.62
514.209	31768.62
514.982	30513.62
515.754	29204.62
516.526	28023.62
517.298	26834.62
518.071	25749.62
518.843	24670.62
519.615	23661.62
520.387	22702.62
521.159	21885.62
521.93	20958.62
522.702	20092.62
523.474	19301.62
524.245	18448.62
525.017	17682.62
525.788	16939.62
526.56	16129.62
527.331	15334.62
528.102	14665.62
528.873	13974.62
529.644	13234.62
530.415	12532.62
531.186	11921.62
531.957	11310.62
532.728	10712.62
533.498	10145.62
534.269	9534.62
535.039	9069.62
535.81	8567.62
536.58	8106.62
537.351	7652.62
538.121	7251.62
538.891	6861.62
539.661	6476.62
540.431	6161.62
541.201	5836.62
541.971	5539.62
542.741	5241.62
543.51	4938.62
544.28	4728.62
545.05	4470.62
545.819	4253.62
546.588	4017.62
547.358	3867.62
548.127	3655.62
548.896	3485.62
549.665	3315.62
550.434	3116.62
551.203	2960.62
551.972	2809.62
552.741	2651.62
553.51	2481.62
554.278	2369.62
555.047	2251.62
555.815	2117.62
556.584	2001.62
557.352	1904.62
558.121	1785.62
558.889	1670.62
559.657	1586.62
560.425	1501.62
561.193	1406.62
561.961	1342.62
562.729	1260.62
563.496	1206.62
564.264	1149.62
565.032	1081.62
565.799	1019.62
566.567	958.62
567.334	912.62
568.101	860.62
568.869	817.62
569.636	771.62
570.403	726.62
571.17	676.62
571.937	653.62
572.704	615.62
573.471	571.62
574.237	541.62
575.004	507.62
575.771	483.62
576.537	462.62
577.303	428.62
578.07	408.62
578.836	382.62
579.602	357.62
580.368	340.62
581.134	319.62
581.9	305.62
582.666	291.62
583.432	276.62
584.198	267.62
584.964	251.62
585.729	234.62
586.495	223.62
587.26	212.62
588.025	197.62
588.791	189.62
589.556	184.62
590.321	170.62
591.086	161.62
591.851	156.62
592.616	149.62
593.381	143.62
594.146	136.62
594.911	125.62
595.675	125.62
596.44	117.62
597.204	110.62
597.969	109.62
598.733	102.62
599.497	97.62
600.261	93.62
601.025	89.62
601.79	83.62
602.553	85.62
603.317	82.62
604.081	76.62
604.845	73.62
605.609	69.62
606.372	68.62
607.136	62.62
607.899	63.62
608.662	59.62
609.426	54.62
610.189	56.62
610.952	51.62
611.715	49.62
612.478	50.62
613.241	48.62
614.004	45.62
614.767	45.62
615.529	40.62
616.292	40.62
617.055	38.62
617.817	39.62
618.579	37.62
619.342	38.62
620.104	37.62
620.866	35.62
621.628	29.62
622.39	32.62
623.152	28.62
623.914	32.62
624.676	28.62
625.438	28.62
626.199	27.62
626.961	28.62
627.722	25.62
628.484	24.62
629.245	24.62
630.006	25.62
630.768	22.62
631.529	21.62
632.29	22.62
633.051	22.62
633.812	20.62
634.573	21.62
635.333	17.62
636.094	19.62
636.855	19.62
637.615	18.62
638.376	17.62
639.136	18.62
639.896	17.62
640.657	16.62
641.417	16.62
642.177	15.62
642.937	13.62
643.697	14.62
644.457	11.62
645.216	14.62
645.976	13.62
646.736	13.62
647.495	12.62
648.255	11.62
649.014	14.62
649.774	12.62
650.533	12.62
651.292	12.62
652.051	12.62
652.81	8.62
653.569	12.62
654.328	11.62
655.087	8.62
655.846	12.62
656.604	11.62
657.363	9.62
658.121	10.62
658.88	8.62
659.638	8.62
660.397	9.62
661.155	8.62
661.913	9.62
662.671	11.62
663.429	10.62
664.187	8.62
664.945	8.62
665.703	7.62
666.46	8.62
667.218	8.62
667.976	10.62
668.733	7.62
669.49	8.62
670.248	7.62
671.005	7.62
671.762	10.62
672.519	8.62
673.276	7.62
674.033	5.62
674.79	4.62
675.547	10.62
676.304	6.62
677.06	9.62
677.817	5.62
678.574	6.62
679.33	4.62
680.086	4.62
680.843	6.62
681.599	5.62
682.355	6.62
683.111	7.62
683.867	5.62
684.623	6.62
685.379	6.62
686.135	6.62
686.89	8.62
687.646	9.62
688.402	6.62
689.157	7.62
689.912	6.62
690.668	6.62
691.423	4.62
692.178	4.62
692.933	5.62
693.688	8.62
694.443	5.62
695.198	5.62
695.953	4.62
696.708	6.62
697.462	6.62
698.217	6.62
698.972	6.62
699.726	4.62
700.48	5.62
701.235	8.62
701.989	5.62
702.743	3.62
703.497	6.62
704.251	7.62
705.005	4.62
705.759	6.62
706.513	6.62
707.266	5.62
708.02	6.62
708.774	6.62
709.527	5.62
710.28	5.62
711.034	4.62
711.787	3.62
712.54	8.62
713.293	6.62
714.046	8.62
714.799	10.62
715.552	5.62
716.305	5.62
717.058	6.62
717.81	5.62
718.563	4.62
719.315	4.62
720.068	6.62
720.82	6.62
721.573	8.62
722.325	9.62
723.077	7.62
723.829	7.62
724.581	7.62
725.333	6.62
726.085	6.62
726.836	4.62
727.588	4.62
728.34	8.62
729.091	6.62
729.843	7.62
730.594	6.62
731.346	6.62
732.097	9.62
732.848	5.62
733.599	9.62
734.35	8.62
735.101	6.62
735.852	7.62
736.603	7.62
737.354	9.62
738.104	6.62
738.855	8.62
739.605	7.62
740.356	10.62
741.106	5.62
741.856	7.62
742.607	6.62
743.357	8.62
744.107	8.62
744.857	11.62
745.607	10.62
746.357	7.62
747.106	5.62
747.856	6.62
748.606	9.62
749.355	10.62
750.105	8.62
750.854	10.62
751.603	7.62
752.353	9.62
753.102	9.62
753.851	8.62
754.6	9.62
755.349	8.62
756.098	12.62
756.847	6.62
757.595	10.62
758.344	11.62
759.093	8.62
759.841	10.62
760.589	11.62
761.338	9.62
762.086	10.62
762.834	11.62
763.582	11.62
764.331	12.62
765.079	13.62
765.826	10.62
766.574	12.62
767.322	11.62
768.07	10.62
768.817	12.62
769.565	11.62
770.312	12.62
771.06	13.62
771.807	13.62
772.554	12.62
773.302	13.62
774.049	13.62
774.796	11.62
775.543	12.62
776.29	12.62
777.036	17.62
777.783	13.62
778.53	14.62
779.276	13.62
780.023	14.62
780.769	13.62
781.516	13.62
782.262	14.62
783.008	14.62
783.754	15.62
784.5	13.62
785.246	15.62
785.992	13.62
786.738	11.62
787.484	15.62
788.23	10.62
788.975	14.62
789.721	13.62
790.466	10.62
791.212	14.62
791.957	13.62
792.702	12.62
793.447	12.62
794.193	10.62
794.938	10.62
795.683	12.62
796.427	14.62
797.172	9.62
797.917	10.62
798.662	10.62
799.406	11.62
800.151	9.62
800.895	10.62
801.64	9.62
802.384	12.62
803.128	10.62
803.872	9.62
804.616	11.62
805.36	8.62
806.104	9.62
806.848	10.62
807.592	12.62
808.336	10.62
809.079	11.62
809.823	10.62
810.566	6.62
811.31	8.62
812.053	8.62
812.796	8.62
813.539	9.62
814.283	4.62
815.026	7.62
815.769	7.62
816.511	7.62
817.254	6.62
817.997	7.62
818.74	8.62
819.482	5.62
820.225	8.62
820.967	2.62
821.71	8.62
822.452	5.62
823.194	8.62
823.936	5.62
824.678	6.62
825.42	6.62
826.162	3.62
826.904	9.62
827.646	6.62
828.388	6.62
829.129	4.62
829.871	5.62
830.612	7.62
831.354	6.62
832.095	6.62
832.836	4.62
833.577	5.62
834.319	4.62
835.06	2.62
835.801	3.62
836.542	5.62
837.282	4.62
838.023	5.62
838.764	6.62
839.504	4.62
840.245	3.62
840.985	5.62
841.726	4.62
842.466	5.62
843.206	3.62
843.946	6.62
844.687	4.62
845.427	2.62
846.166	2.62
846.906	4.62
847.646	4.62
848.386	1.62
849.125	4.62
849.865	3.62
850.605	5.62
851.344	4.62
852.083	3.62
852.823	5.62
853.562	3.62
854.301	3.62
855.04	2.62
855.779	4.62
856.518	0.62
857.257	0.62
857.995	3.62
858.734	3.62
859.473	4.62
860.211	3.62
860.95	3.62
861.688	0.62
862.426	2.62
863.165	1.62
863.903	1.62
864.641	4.62
865.379	2.62
866.117	2.62
866.855	2.62
867.593	0.62
868.33	1.62
869.068	1.62
869.806	2.62
870.543	0.62
871.28	2.62
872.018	2.62
872.755	3.62
873.492	2.62
874.229	2.62
874.967	2.62
875.703	0.62
876.44	1.62
877.177	2.62
877.914	1.62
878.651	1.62
879.387	2.62
880.124	1.62
880.86	1.62
881.597	1.62
882.333	-0.38
883.069	2.62
883.806	-0.38
884.542	3.62
885.278	2.62
886.014	0.62
886.749	0.62
887.485	0.62
888.221	2.62
888.957	0.62
889.692	-0.38
890.428	0.62
891.163	2.62
891.899	2.62
892.634	0.62
893.369	0.62
894.104	-0.38
894.839	1.62
895.574	-0.38
896.309	-1.38
897.044	1.62
897.779	0.62
898.514	0.62
899.248	0.62
899.983	0.62
900.717	0.62
901.452	0.62
902.186	0.62
902.92	-0.38
903.654	-1.38
904.389	-1.38
905.123	0.62
905.857	1.62
906.59	1.62
907.324	0.62
908.058	-1.38
908.792	1.62
909.525	1.62
910.259	1.62
910.992	1.62
911.726	-0.38
912.459	0.62
913.192	0.62
913.925	0.62
914.658	-1.38
915.391	1.62
916.124	0.62
916.857	1.62
917.59	1.62
918.323	-0.38
919.055	0.62
919.788	0.62
920.521	-0.38
921.253	-1.38
921.985	0.62
922.718	0.62
923.45	-1.38
924.182	1.62
924.914	-0.38
925.646	0.62
926.378	1.62
927.11	-0.38
927.841	0.62
928.573	1.62
929.305	0.62
930.036	0.62
930.768	-1.38
931.499	0.62
932.23	-0.38
932.962	1.62
933.693	-3.38
934.424	0.62
935.155	1.62
935.886	0.62
936.617	2.62
937.348	0.62
938.078	0.62
938.809	1.62
939.54	0.62
940.27	1.62
941.001	-1.38
941.731	0.62
942.461	1.62
943.191	1.62
943.922	0.62
944.652	-0.38
945.382	0.62
946.112	-0.38
946.841	-0.38
947.571	-2.38
948.301	0.62
949.031	0.62
949.76	0.62
950.49	-0.38
951.219	1.62
951.948	0.62
952.678	0.62
953.407	-0.38
954.136	-0.38
954.865	0.62
955.594	-0.38
956.323	0.62
957.052	1.62
957.78	-1.38
958.509	-0.38
959.238	-0.38
959.966	0.62
960.695	-0.38
961.423	0.62
962.151	-2.38
962.88	0.62
963.608	1.62
964.336	-1.38
965.064	-1.38
965.792	-0.38
966.52	-1.38
967.247	0.62
967.975	0.62
968.703	-0.38
969.43	0.62
970.158	1.62
970.885	0.62
971.613	1.62
972.34	1.62
973.067	-0.38
973.794	1.62
974.521	1.62
975.248	-0.38
975.975	-2.38
976.702	0.62
977.429	0.62
978.156	-0.38
978.882	2.62
979.609	0.62
980.335	0.62
981.062	2.62
981.788	-0.38
982.514	0.62
983.24	0.62
983.967	0.62
984.693	-2.38
985.419	0.62
986.144	0.62
986.87	0.62
987.596	0.62
988.322	-1.38
989.047	3.62
989.773	-0.38
990.498	0.62
991.224	-0.38
991.949	2.62
992.674	0.62
993.399	0.62
994.124	-0.38
994.849	-1.38
995.574	-0.38
996.299	0.62
997.024	-0.38
997.749	1.62
998.473	1.62
999.198	1.62
999.922	0.62
1000.647	1.62
1001.371	4.62
1002.095	-1.38
1002.82	-0.38
1003.544	-1.38
1004.268	4.62
1004.992	3.62
1005.716	3.62
1006.439	1.62
1007.163	2.62
1007.887	4.62
1008.611	0.62
1009.334	-2.38
1010.058	1.62
1010.781	1.62
1011.504	-0.38
1012.228	0.62
1012.951	0.62
1013.674	-0.38
1014.397	-1.38
1015.12	-0.38
