节点500_565_QEPB04081__363__09-56-27-356.txt的数据

Date: Thu Nov 13 09:56:27 CST 2025
User: PC
Spectrometer: QEPB0408
触发模式: 0
积分时间 (秒): 1.000000E-2
Scans to average: 1
启用暗噪声校正: true
启用非线性校正: false
滑动平均宽度: 0
X轴模式: Wavelengths
Number of Pixels in Spectrum: 1044
>>>>>Begin Spectral Data<<<<<
220.843	5.62
221.644	4.62
222.444	3.62
223.244	6.62
224.045	3.62
224.845	5.62
225.645	5.62
226.445	7.62
227.245	6.62
228.045	7.62
228.845	6.62
229.645	6.62
230.444	7.62
231.244	6.62
232.043	8.62
232.843	3.62
233.642	6.62
234.442	9.62
235.241	9.62
236.04	10.62
236.839	6.62
237.638	9.62
238.437	6.62
239.236	9.62
240.035	9.62
240.833	7.62
241.632	9.62
242.43	9.62
243.229	9.62
244.027	7.62
244.826	13.62
245.624	9.62
246.422	12.62
247.22	11.62
248.018	11.62
248.816	12.62
249.614	13.62
250.412	11.62
251.21	10.62
252.007	13.62
252.805	13.62
253.602	12.62
254.4	16.62
255.197	13.62
255.994	15.62
256.791	16.62
257.589	13.62
258.386	17.62
259.183	16.62
259.979	19.62
260.776	18.62
261.573	21.62
262.37	20.62
263.166	21.62
263.963	17.62
264.759	19.62
265.556	22.62
266.352	19.62
267.148	23.62
267.944	23.62
268.74	22.62
269.536	23.62
270.332	21.62
271.128	26.62
271.924	25.62
272.719	26.62
273.515	27.62
274.311	29.62
275.106	23.62
275.901	26.62
276.697	26.62
277.492	26.62
278.287	30.62
279.082	24.62
279.877	29.62
280.672	31.62
281.467	29.62
282.262	30.62
283.056	29.62
283.851	29.62
284.646	27.62
285.44	29.62
286.234	28.62
287.029	30.62
287.823	29.62
288.617	24.62
289.411	26.62
290.205	29.62
290.999	28.62
291.793	27.62
292.587	27.62
293.381	28.62
294.174	23.62
294.968	23.62
295.761	23.62
296.555	22.62
297.348	21.62
298.141	24.62
298.935	26.62
299.728	21.62
300.521	21.62
301.314	25.62
302.107	20.62
302.899	20.62
303.692	20.62
304.485	20.62
305.277	19.62
306.07	19.62
306.862	17.62
307.655	18.62
308.447	17.62
309.239	18.62
310.031	16.62
310.823	16.62
311.615	17.62
312.407	15.62
313.199	15.62
313.991	16.62
314.783	13.62
315.574	16.62
316.366	11.62
317.157	14.62
317.949	13.62
318.74	14.62
319.531	13.62
320.322	11.62
321.113	13.62
321.904	11.62
322.695	9.62
323.486	13.62
324.277	15.62
325.068	12.62
325.858	13.62
326.649	9.62
327.439	11.62
328.23	13.62
329.02	12.62
329.81	11.62
330.6	10.62
331.391	11.62
332.181	12.62
332.971	11.62
333.76	9.62
334.55	11.62
335.34	10.62
336.13	9.62
336.919	10.62
337.709	9.62
338.498	11.62
339.287	9.62
340.077	9.62
340.866	8.62
341.655	10.62
342.444	8.62
343.233	10.62
344.022	10.62
344.811	13.62
345.6	9.62
346.388	10.62
347.177	8.62
347.965	12.62
348.754	12.62
349.542	11.62
350.33	10.62
351.119	9.62
351.907	10.62
352.695	9.62
353.483	8.62
354.271	9.62
355.059	9.62
355.846	7.62
356.634	8.62
357.422	9.62
358.209	9.62
358.997	8.62
359.784	8.62
360.571	10.62
361.359	10.62
362.146	7.62
362.933	11.62
363.72	11.62
364.507	8.62
365.294	7.62
366.081	8.62
366.867	10.62
367.654	9.62
368.44	8.62
369.227	10.62
370.013	7.62
370.8	8.62
371.586	10.62
372.372	9.62
373.158	9.62
373.944	10.62
374.73	9.62
375.516	10.62
376.302	7.62
377.088	10.62
377.873	8.62
378.659	9.62
379.445	10.62
380.23	9.62
381.015	9.62
381.801	8.62
382.586	9.62
383.371	8.62
384.156	8.62
384.941	9.62
385.726	6.62
386.511	7.62
387.296	8.62
388.08	11.62
388.865	10.62
389.649	13.62
390.434	9.62
391.218	9.62
392.003	10.62
392.787	10.62
393.571	11.62
394.355	8.62
395.139	12.62
395.923	13.62
396.707	12.62
397.491	11.62
398.274	10.62
399.058	11.62
399.842	11.62
400.625	13.62
401.408	13.62
402.192	15.62
402.975	12.62
403.758	13.62
404.541	12.62
405.324	12.62
406.107	13.62
406.89	14.62
407.673	14.62
408.456	15.62
409.238	13.62
410.021	14.62
410.803	13.62
411.586	14.62
412.368	13.62
413.151	15.62
413.933	13.62
414.715	14.62
415.497	15.62
416.279	15.62
417.061	16.62
417.843	15.62
418.624	17.62
419.406	14.62
420.188	19.62
420.969	17.62
421.751	14.62
422.532	20.62
423.313	19.62
424.095	21.62
424.876	18.62
425.657	21.62
426.438	23.62
427.219	21.62
428	21.62
428.78	22.62
429.561	24.62
430.342	25.62
431.122	26.62
431.903	28.62
432.683	25.62
433.464	28.62
434.244	29.62
435.024	33.62
435.804	33.62
436.584	33.62
437.364	35.62
438.144	40.62
438.924	43.62
439.704	44.62
440.483	45.62
441.263	46.62
442.042	50.62
442.822	57.62
443.601	58.62
444.38	64.62
445.16	71.62
445.939	68.62
446.718	81.62
447.497	87.62
448.276	91.62
449.054	101.62
449.833	112.62
450.612	123.62
451.391	140.62
452.169	146.62
452.948	165.62
453.726	185.62
454.504	201.62
455.282	227.62
456.061	248.62
456.839	272.62
457.617	311.62
458.395	345.62
459.172	389.62
459.95	427.62
460.728	474.62
461.506	529.62
462.283	603.62
463.061	652.62
463.838	727.62
464.615	827.62
465.393	908.62
466.17	1011.62
466.947	1133.62
467.724	1262.62
468.501	1388.62
469.278	1553.62
470.055	1690.62
470.831	1882.62
471.608	2084.62
472.385	2302.62
473.161	2504.62
473.938	2771.62
474.714	3065.62
475.49	3337.62
476.266	3675.62
477.043	4046.62
477.819	4396.62
478.595	4818.62
479.371	5260.62
480.146	5783.62
480.922	6301.62
481.698	6861.62
482.473	7486.62
483.249	8108.62
484.024	8847.62
484.8	9610.62
485.575	10435.62
486.35	11297.62
487.126	12279.62
487.901	13303.62
488.676	14412.62
489.451	15541.62
490.225	16825.62
491	18082.62
491.775	19417.62
492.55	20827.62
493.324	22287.62
494.099	23778.62
494.873	25282.62
495.647	26906.62
496.422	28439.62
497.196	30023.62
497.97	31530.62
498.744	32927.62
499.518	34270.62
500.292	35563.62
501.066	36758.62
501.839	37875.62
502.613	38711.62
503.387	39422.62
504.16	40052.62
504.934	40312.62
505.707	40496.62
506.48	40462.62
507.253	40147.62
508.027	39625.62
508.8	39064.62
509.573	38270.62
510.346	37291.62
511.118	36323.62
511.891	35430.62
512.664	34235.62
513.437	32971.62
514.209	31723.62
514.982	30535.62
515.754	29407.62
516.526	28114.62
517.298	27010.62
518.071	25919.62
518.843	24883.62
519.615	23870.62
520.387	22895.62
521.159	22065.62
521.93	21187.62
522.702	20336.62
523.474	19478.62
524.245	18741.62
525.017	17971.62
525.788	17173.62
526.56	16365.62
527.331	15658.62
528.102	14955.62
528.873	14253.62
529.644	13498.62
530.415	12876.62
531.186	12199.62
531.957	11642.62
532.728	11041.62
533.498	10469.62
534.269	9889.62
535.039	9368.62
535.81	8881.62
536.58	8393.62
537.351	7961.62
538.121	7511.62
538.891	7096.62
539.661	6744.62
540.431	6394.62
541.201	6074.62
541.971	5713.62
542.741	5423.62
543.51	5133.62
544.28	4872.62
545.05	4640.62
545.819	4452.62
546.588	4180.62
547.358	3992.62
548.127	3807.62
548.896	3602.62
549.665	3447.62
550.434	3254.62
551.203	3092.62
551.972	2915.62
552.741	2765.62
553.51	2615.62
554.278	2483.62
555.047	2340.62
555.815	2197.62
556.584	2111.62
557.352	1966.62
558.121	1867.62
558.889	1758.62
559.657	1670.62
560.425	1568.62
561.193	1490.62
561.961	1409.62
562.729	1317.62
563.496	1261.62
564.264	1189.62
565.032	1148.62
565.799	1072.62
566.567	1011.62
567.334	957.62
568.101	891.62
568.869	847.62
569.636	799.62
570.403	754.62
571.17	729.62
571.937	676.62
572.704	643.62
573.471	603.62
574.237	568.62
575.004	542.62
575.771	509.62
576.537	477.62
577.303	447.62
578.07	423.62
578.836	403.62
579.602	375.62
580.368	358.62
581.134	345.62
581.9	325.62
582.666	305.62
583.432	288.62
584.198	274.62
584.964	263.62
585.729	244.62
586.495	234.62
587.26	227.62
588.025	217.62
588.791	203.62
589.556	187.62
590.321	178.62
591.086	173.62
591.851	168.62
592.616	157.62
593.381	144.62
594.146	143.62
594.911	137.62
595.675	126.62
596.44	122.62
597.204	118.62
597.969	108.62
598.733	104.62
599.497	100.62
600.261	103.62
601.025	94.62
601.79	89.62
602.553	90.62
603.317	83.62
604.081	78.62
604.845	78.62
605.609	72.62
606.372	69.62
607.136	66.62
607.899	62.62
608.662	60.62
609.426	59.62
610.189	58.62
610.952	51.62
611.715	54.62
612.478	51.62
613.241	51.62
614.004	46.62
614.767	47.62
615.529	45.62
616.292	42.62
617.055	44.62
617.817	37.62
618.579	38.62
619.342	38.62
620.104	38.62
620.866	37.62
621.628	33.62
622.39	31.62
623.152	29.62
623.914	34.62
624.676	33.62
625.438	29.62
626.199	29.62
626.961	25.62
627.722	26.62
628.484	25.62
629.245	27.62
630.006	23.62
630.768	23.62
631.529	21.62
632.29	19.62
633.051	22.62
633.812	22.62
634.573	21.62
635.333	19.62
636.094	21.62
636.855	19.62
637.615	22.62
638.376	17.62
639.136	17.62
639.896	17.62
640.657	16.62
641.417	18.62
642.177	14.62
642.937	16.62
643.697	16.62
644.457	17.62
645.216	13.62
645.976	15.62
646.736	14.62
647.495	12.62
648.255	14.62
649.014	13.62
649.774	11.62
650.533	14.62
651.292	12.62
652.051	14.62
652.81	12.62
653.569	12.62
654.328	10.62
655.087	11.62
655.846	12.62
656.604	9.62
657.363	9.62
658.121	12.62
658.88	11.62
659.638	10.62
660.397	10.62
661.155	8.62
661.913	6.62
662.671	11.62
663.429	9.62
664.187	9.62
664.945	8.62
665.703	9.62
666.46	9.62
667.218	9.62
667.976	8.62
668.733	8.62
669.49	9.62
670.248	8.62
671.005	8.62
671.762	9.62
672.519	10.62
673.276	9.62
674.033	5.62
674.79	8.62
675.547	8.62
676.304	7.62
677.06	9.62
677.817	5.62
678.574	9.62
679.33	7.62
680.086	8.62
680.843	10.62
681.599	7.62
682.355	6.62
683.111	9.62
683.867	9.62
684.623	7.62
685.379	6.62
686.135	6.62
686.89	7.62
687.646	8.62
688.402	7.62
689.157	6.62
689.912	4.62
690.668	8.62
691.423	7.62
692.178	6.62
692.933	6.62
693.688	4.62
694.443	9.62
695.198	6.62
695.953	9.62
696.708	7.62
697.462	6.62
698.217	5.62
698.972	6.62
699.726	9.62
700.48	4.62
701.235	8.62
701.989	6.62
702.743	8.62
703.497	5.62
704.251	6.62
705.005	8.62
705.759	7.62
706.513	9.62
707.266	5.62
708.02	7.62
708.774	5.62
709.527	7.62
710.28	7.62
711.034	5.62
711.787	6.62
712.54	8.62
713.293	7.62
714.046	5.62
714.799	7.62
715.552	5.62
716.305	7.62
717.058	9.62
717.81	6.62
718.563	5.62
719.315	5.62
720.068	7.62
720.82	6.62
721.573	4.62
722.325	5.62
723.077	6.62
723.829	6.62
724.581	7.62
725.333	6.62
726.085	6.62
726.836	8.62
727.588	8.62
728.34	6.62
729.091	7.62
729.843	7.62
730.594	7.62
731.346	7.62
732.097	7.62
732.848	11.62
733.599	9.62
734.35	7.62
735.101	8.62
735.852	7.62
736.603	9.62
737.354	7.62
738.104	9.62
738.855	9.62
739.605	7.62
740.356	6.62
741.106	9.62
741.856	7.62
742.607	9.62
743.357	10.62
744.107	5.62
744.857	8.62
745.607	9.62
746.357	7.62
747.106	8.62
747.856	6.62
748.606	11.62
749.355	8.62
750.105	8.62
750.854	10.62
751.603	11.62
752.353	10.62
753.102	11.62
753.851	11.62
754.6	7.62
755.349	9.62
756.098	7.62
756.847	9.62
757.595	10.62
758.344	11.62
759.093	9.62
759.841	10.62
760.589	10.62
761.338	7.62
762.086	11.62
762.834	12.62
763.582	11.62
764.331	10.62
765.079	11.62
765.826	10.62
766.574	10.62
767.322	13.62
768.07	11.62
768.817	13.62
769.565	11.62
770.312	12.62
771.06	13.62
771.807	13.62
772.554	15.62
773.302	13.62
774.049	14.62
774.796	11.62
775.543	14.62
776.29	16.62
777.036	12.62
777.783	16.62
778.53	12.62
779.276	17.62
780.023	13.62
780.769	13.62
781.516	12.62
782.262	12.62
783.008	15.62
783.754	13.62
784.5	13.62
785.246	12.62
785.992	14.62
786.738	12.62
787.484	13.62
788.23	11.62
788.975	11.62
789.721	14.62
790.466	14.62
791.212	11.62
791.957	13.62
792.702	12.62
793.447	10.62
794.193	11.62
794.938	13.62
795.683	11.62
796.427	14.62
797.172	10.62
797.917	13.62
798.662	13.62
799.406	13.62
800.151	10.62
800.895	13.62
801.64	13.62
802.384	12.62
803.128	10.62
803.872	10.62
804.616	10.62
805.36	8.62
806.104	10.62
806.848	9.62
807.592	8.62
808.336	7.62
809.079	7.62
809.823	7.62
810.566	8.62
811.31	8.62
812.053	7.62
812.796	8.62
813.539	7.62
814.283	10.62
815.026	8.62
815.769	8.62
816.511	7.62
817.254	9.62
817.997	9.62
818.74	7.62
819.482	5.62
820.225	8.62
820.967	6.62
821.71	3.62
822.452	7.62
823.194	7.62
823.936	7.62
824.678	6.62
825.42	6.62
826.162	6.62
826.904	7.62
827.646	8.62
828.388	6.62
829.129	5.62
829.871	7.62
830.612	5.62
831.354	6.62
832.095	6.62
832.836	6.62
833.577	5.62
834.319	6.62
835.06	3.62
835.801	5.62
836.542	4.62
837.282	3.62
838.023	5.62
838.764	5.62
839.504	5.62
840.245	5.62
840.985	4.62
841.726	4.62
842.466	4.62
843.206	4.62
843.946	4.62
844.687	4.62
845.427	3.62
846.166	4.62
846.906	5.62
847.646	2.62
848.386	5.62
849.125	4.62
849.865	6.62
850.605	5.62
851.344	6.62
852.083	4.62
852.823	2.62
853.562	5.62
854.301	2.62
855.04	4.62
855.779	3.62
856.518	3.62
857.257	6.62
857.995	2.62
858.734	3.62
859.473	3.62
860.211	3.62
860.95	2.62
861.688	3.62
862.426	4.62
863.165	3.62
863.903	4.62
864.641	5.62
865.379	3.62
866.117	2.62
866.855	3.62
867.593	1.62
868.33	3.62
869.068	3.62
869.806	1.62
870.543	0.62
871.28	1.62
872.018	3.62
872.755	2.62
873.492	3.62
874.229	3.62
874.967	1.62
875.703	3.62
876.44	3.62
877.177	2.62
877.914	5.62
878.651	1.62
879.387	1.62
880.124	1.62
880.86	3.62
881.597	1.62
882.333	1.62
883.069	1.62
883.806	4.62
884.542	4.62
885.278	2.62
886.014	1.62
886.749	2.62
887.485	0.62
888.221	0.62
888.957	0.62
889.692	4.62
890.428	1.62
891.163	1.62
891.899	3.62
892.634	2.62
893.369	2.62
894.104	0.62
894.839	0.62
895.574	0.62
896.309	0.62
897.044	2.62
897.779	1.62
898.514	2.62
899.248	0.62
899.983	0.62
900.717	1.62
901.452	3.62
902.186	1.62
902.92	0.62
903.654	-0.38
904.389	3.62
905.123	0.62
905.857	1.62
906.59	2.62
907.324	2.62
908.058	0.62
908.792	0.62
909.525	-0.38
910.259	1.62
910.992	1.62
911.726	3.62
912.459	1.62
913.192	-0.38
913.925	2.62
914.658	0.62
915.391	1.62
916.124	-1.38
916.857	3.62
917.59	2.62
918.323	2.62
919.055	-0.38
919.788	1.62
920.521	2.62
921.253	1.62
921.985	2.62
922.718	0.62
923.45	1.62
924.182	1.62
924.914	2.62
925.646	1.62
926.378	0.62
927.11	2.62
927.841	1.62
928.573	0.62
929.305	3.62
930.036	-0.38
930.768	-1.38
931.499	0.62
932.23	0.62
932.962	-0.38
933.693	1.62
934.424	1.62
935.155	2.62
935.886	1.62
936.617	2.62
937.348	-0.38
938.078	-1.38
938.809	2.62
939.54	-0.38
940.27	0.62
941.001	2.62
941.731	0.62
942.461	2.62
943.191	1.62
943.922	1.62
944.652	0.62
945.382	0.62
946.112	0.62
946.841	0.62
947.571	2.62
948.301	-0.38
949.031	-0.38
949.76	2.62
950.49	1.62
951.219	1.62
951.948	1.62
952.678	2.62
953.407	-0.38
954.136	1.62
954.865	-0.38
955.594	1.62
956.323	0.62
957.052	-1.38
957.78	1.62
958.509	1.62
959.238	-0.38
959.966	1.62
960.695	-0.38
961.423	2.62
962.151	1.62
962.88	-2.38
963.608	-0.38
964.336	1.62
965.064	0.62
965.792	1.62
966.52	1.62
967.247	1.62
967.975	0.62
968.703	1.62
969.43	1.62
970.158	1.62
970.885	2.62
971.613	1.62
972.34	2.62
973.067	1.62
973.794	1.62
974.521	1.62
975.248	-2.38
975.975	0.62
976.702	1.62
977.429	3.62
978.156	1.62
978.882	0.62
979.609	-0.38
980.335	1.62
981.062	2.62
981.788	0.62
982.514	1.62
983.24	0.62
983.967	1.62
984.693	-0.38
985.419	-1.38
986.144	1.62
986.87	-0.38
987.596	1.62
988.322	-1.38
989.047	3.62
989.773	2.62
990.498	4.62
991.224	0.62
991.949	0.62
992.674	1.62
993.399	0.62
994.124	-1.38
994.849	-0.38
995.574	1.62
996.299	2.62
997.024	1.62
997.749	1.62
998.473	-0.38
999.198	2.62
999.922	1.62
1000.647	1.62
1001.371	2.62
1002.095	-1.38
1002.82	-1.38
1003.544	-1.38
1004.268	3.62
1004.992	3.62
1005.716	3.62
1006.439	6.62
1007.163	2.62
1007.887	4.62
1008.611	1.62
1009.334	1.62
1010.058	0.62
1010.781	-1.38
1011.504	-0.38
1012.228	0.62
1012.951	1.62
1013.674	-2.38
1014.397	1.62
1015.12	0.62
