节点500_565_QEPB04081__371__09-56-35-352.txt的数据

Date: Thu Nov 13 09:56:35 CST 2025
User: PC
Spectrometer: QEPB0408
触发模式: 0
积分时间 (秒): 1.000000E-2
Scans to average: 1
启用暗噪声校正: true
启用非线性校正: false
滑动平均宽度: 0
X轴模式: Wavelengths
Number of Pixels in Spectrum: 1044
>>>>>Begin Spectral Data<<<<<
220.843	4.5
221.644	4.5
222.444	6.5
223.244	4.5
224.045	4.5
224.845	6.5
225.645	4.5
226.445	6.5
227.245	5.5
228.045	6.5
228.845	6.5
229.645	5.5
230.444	7.5
231.244	7.5
232.043	6.5
232.843	6.5
233.642	7.5
234.442	9.5
235.241	9.5
236.04	6.5
236.839	7.5
237.638	8.5
238.437	8.5
239.236	7.5
240.035	8.5
240.833	9.5
241.632	8.5
242.43	7.5
243.229	10.5
244.027	9.5
244.826	8.5
245.624	12.5
246.422	10.5
247.22	9.5
248.018	11.5
248.816	10.5
249.614	10.5
250.412	14.5
251.21	14.5
252.007	9.5
252.805	14.5
253.602	13.5
254.4	13.5
255.197	14.5
255.994	17.5
256.791	15.5
257.589	17.5
258.386	18.5
259.183	16.5
259.979	18.5
260.776	18.5
261.573	21.5
262.37	18.5
263.166	16.5
263.963	18.5
264.759	21.5
265.556	22.5
266.352	21.5
267.148	23.5
267.944	23.5
268.74	21.5
269.536	21.5
270.332	21.5
271.128	25.5
271.924	23.5
272.719	25.5
273.515	26.5
274.311	27.5
275.106	27.5
275.901	22.5
276.697	27.5
277.492	24.5
278.287	30.5
279.082	26.5
279.877	28.5
280.672	28.5
281.467	29.5
282.262	26.5
283.056	25.5
283.851	29.5
284.646	28.5
285.44	28.5
286.234	28.5
287.029	28.5
287.823	27.5
288.617	26.5
289.411	25.5
290.205	28.5
290.999	28.5
291.793	29.5
292.587	27.5
293.381	26.5
294.174	26.5
294.968	26.5
295.761	24.5
296.555	22.5
297.348	22.5
298.141	21.5
298.935	25.5
299.728	20.5
300.521	21.5
301.314	22.5
302.107	20.5
302.899	17.5
303.692	18.5
304.485	18.5
305.277	19.5
306.07	18.5
306.862	20.5
307.655	19.5
308.447	19.5
309.239	15.5
310.031	15.5
310.823	14.5
311.615	14.5
312.407	14.5
313.199	16.5
313.991	14.5
314.783	12.5
315.574	12.5
316.366	13.5
317.157	11.5
317.949	12.5
318.74	12.5
319.531	12.5
320.322	12.5
321.113	12.5
321.904	11.5
322.695	11.5
323.486	12.5
324.277	10.5
325.068	12.5
325.858	13.5
326.649	10.5
327.439	11.5
328.23	10.5
329.02	8.5
329.81	10.5
330.6	8.5
331.391	10.5
332.181	11.5
332.971	10.5
333.76	10.5
334.55	8.5
335.34	9.5
336.13	8.5
336.919	8.5
337.709	9.5
338.498	11.5
339.287	13.5
340.077	6.5
340.866	10.5
341.655	9.5
342.444	8.5
343.233	8.5
344.022	9.5
344.811	9.5
345.6	9.5
346.388	12.5
347.177	9.5
347.965	10.5
348.754	9.5
349.542	9.5
350.33	10.5
351.119	8.5
351.907	10.5
352.695	7.5
353.483	12.5
354.271	7.5
355.059	5.5
355.846	9.5
356.634	7.5
357.422	7.5
358.209	6.5
358.997	10.5
359.784	10.5
360.571	8.5
361.359	8.5
362.146	8.5
362.933	8.5
363.72	6.5
364.507	8.5
365.294	6.5
366.081	8.5
366.867	8.5
367.654	8.5
368.44	8.5
369.227	10.5
370.013	8.5
370.8	7.5
371.586	7.5
372.372	8.5
373.158	7.5
373.944	8.5
374.73	7.5
375.516	7.5
376.302	10.5
377.088	10.5
377.873	8.5
378.659	5.5
379.445	8.5
380.23	8.5
381.015	9.5
381.801	7.5
382.586	8.5
383.371	7.5
384.156	8.5
384.941	9.5
385.726	9.5
386.511	9.5
387.296	10.5
388.08	8.5
388.865	8.5
389.649	9.5
390.434	9.5
391.218	9.5
392.003	9.5
392.787	10.5
393.571	9.5
394.355	9.5
395.139	8.5
395.923	9.5
396.707	10.5
397.491	10.5
398.274	10.5
399.058	11.5
399.842	12.5
400.625	9.5
401.408	9.5
402.192	10.5
402.975	13.5
403.758	11.5
404.541	11.5
405.324	12.5
406.107	12.5
406.89	16.5
407.673	11.5
408.456	14.5
409.238	12.5
410.021	10.5
410.803	13.5
411.586	14.5
412.368	12.5
413.151	16.5
413.933	15.5
414.715	13.5
415.497	13.5
416.279	13.5
417.061	16.5
417.843	17.5
418.624	18.5
419.406	15.5
420.188	16.5
420.969	16.5
421.751	16.5
422.532	18.5
423.313	18.5
424.095	18.5
424.876	21.5
425.657	19.5
426.438	20.5
427.219	20.5
428	23.5
428.78	22.5
429.561	21.5
430.342	25.5
431.122	24.5
431.903	27.5
432.683	27.5
433.464	29.5
434.244	29.5
435.024	30.5
435.804	34.5
436.584	33.5
437.364	36.5
438.144	36.5
438.924	39.5
439.704	43.5
440.483	45.5
441.263	47.5
442.042	48.5
442.822	53.5
443.601	61.5
444.38	62.5
445.16	66.5
445.939	76.5
446.718	80.5
447.497	85.5
448.276	94.5
449.054	100.5
449.833	112.5
450.612	124.5
451.391	137.5
452.169	144.5
452.948	166.5
453.726	180.5
454.504	201.5
455.282	226.5
456.061	248.5
456.839	274.5
457.617	307.5
458.395	338.5
459.172	388.5
459.95	432.5
460.728	472.5
461.506	537.5
462.283	590.5
463.061	656.5
463.838	725.5
464.615	811.5
465.393	909.5
466.17	1008.5
466.947	1124.5
467.724	1249.5
468.501	1389.5
469.278	1519.5
470.055	1695.5
470.831	1867.5
471.608	2068.5
472.385	2286.5
473.161	2533.5
473.938	2800.5
474.714	3043.5
475.49	3356.5
476.266	3693.5
477.043	4023.5
477.819	4417.5
478.595	4820.5
479.371	5264.5
480.146	5768.5
480.922	6313.5
481.698	6853.5
482.473	7429.5
483.249	8101.5
484.024	8801.5
484.8	9580.5
485.575	10442.5
486.35	11254.5
487.126	12238.5
487.901	13240.5
488.676	14318.5
489.451	15520.5
490.225	16783.5
491	17981.5
491.775	19336.5
492.55	20808.5
493.324	22210.5
494.099	23650.5
494.873	25184.5
495.647	26850.5
496.422	28417.5
497.196	29948.5
497.97	31456.5
498.744	32887.5
499.518	34242.5
500.292	35447.5
501.066	36714.5
501.839	37809.5
502.613	38653.5
503.387	39288.5
504.16	39976.5
504.934	40334.5
505.707	40442.5
506.48	40416.5
507.253	40173.5
508.027	39656.5
508.8	38971.5
509.573	38264.5
510.346	37245.5
511.118	36351.5
511.891	35329.5
512.664	34226.5
513.437	32995.5
514.209	31796.5
514.982	30565.5
515.754	29413.5
516.526	28173.5
517.298	27009.5
518.071	25965.5
518.843	24887.5
519.615	23789.5
520.387	22932.5
521.159	22062.5
521.93	21141.5
522.702	20294.5
523.474	19468.5
524.245	18720.5
525.017	17942.5
525.788	17092.5
526.56	16402.5
527.331	15690.5
528.102	14995.5
528.873	14206.5
529.644	13558.5
530.415	12910.5
531.186	12246.5
531.957	11653.5
532.728	11070.5
533.498	10477.5
534.269	9885.5
535.039	9332.5
535.81	8887.5
536.58	8409.5
537.351	7957.5
538.121	7508.5
538.891	7127.5
539.661	6728.5
540.431	6413.5
541.201	6056.5
541.971	5740.5
542.741	5443.5
543.51	5129.5
544.28	4894.5
545.05	4624.5
545.819	4427.5
546.588	4215.5
547.358	3988.5
548.127	3823.5
548.896	3628.5
549.665	3440.5
550.434	3240.5
551.203	3092.5
551.972	2916.5
552.741	2767.5
553.51	2643.5
554.278	2465.5
555.047	2322.5
555.815	2222.5
556.584	2108.5
557.352	1989.5
558.121	1863.5
558.889	1764.5
559.657	1666.5
560.425	1583.5
561.193	1477.5
561.961	1409.5
562.729	1309.5
563.496	1268.5
564.264	1182.5
565.032	1146.5
565.799	1069.5
566.567	1016.5
567.334	955.5
568.101	901.5
568.869	852.5
569.636	790.5
570.403	758.5
571.17	720.5
571.937	671.5
572.704	634.5
573.471	596.5
574.237	568.5
575.004	534.5
575.771	503.5
576.537	478.5
577.303	451.5
578.07	420.5
578.836	404.5
579.602	378.5
580.368	358.5
581.134	341.5
581.9	324.5
582.666	305.5
583.432	290.5
584.198	283.5
584.964	264.5
585.729	255.5
586.495	235.5
587.26	225.5
588.025	213.5
588.791	200.5
589.556	189.5
590.321	186.5
591.086	169.5
591.851	155.5
592.616	153.5
593.381	146.5
594.146	142.5
594.911	134.5
595.675	127.5
596.44	121.5
597.204	122.5
597.969	116.5
598.733	108.5
599.497	104.5
600.261	100.5
601.025	95.5
601.79	90.5
602.553	86.5
603.317	80.5
604.081	80.5
604.845	77.5
605.609	70.5
606.372	71.5
607.136	64.5
607.899	64.5
608.662	61.5
609.426	59.5
610.189	57.5
610.952	55.5
611.715	52.5
612.478	49.5
613.241	48.5
614.004	48.5
614.767	46.5
615.529	43.5
616.292	45.5
617.055	41.5
617.817	41.5
618.579	37.5
619.342	39.5
620.104	37.5
620.866	38.5
621.628	32.5
622.39	34.5
623.152	30.5
623.914	30.5
624.676	27.5
625.438	28.5
626.199	30.5
626.961	26.5
627.722	31.5
628.484	23.5
629.245	22.5
630.006	26.5
630.768	25.5
631.529	27.5
632.29	20.5
633.051	20.5
633.812	18.5
634.573	20.5
635.333	17.5
636.094	19.5
636.855	21.5
637.615	20.5
638.376	17.5
639.136	16.5
639.896	18.5
640.657	13.5
641.417	15.5
642.177	14.5
642.937	13.5
643.697	14.5
644.457	15.5
645.216	16.5
645.976	14.5
646.736	13.5
647.495	12.5
648.255	10.5
649.014	15.5
649.774	11.5
650.533	13.5
651.292	12.5
652.051	10.5
652.81	12.5
653.569	10.5
654.328	13.5
655.087	9.5
655.846	11.5
656.604	8.5
657.363	10.5
658.121	8.5
658.88	9.5
659.638	11.5
660.397	8.5
661.155	9.5
661.913	10.5
662.671	9.5
663.429	9.5
664.187	7.5
664.945	10.5
665.703	6.5
666.46	9.5
667.218	6.5
667.976	9.5
668.733	8.5
669.49	8.5
670.248	7.5
671.005	6.5
671.762	9.5
672.519	7.5
673.276	8.5
674.033	5.5
674.79	6.5
675.547	6.5
676.304	5.5
677.06	9.5
677.817	5.5
678.574	7.5
679.33	8.5
680.086	7.5
680.843	8.5
681.599	6.5
682.355	6.5
683.111	6.5
683.867	6.5
684.623	7.5
685.379	7.5
686.135	7.5
686.89	6.5
687.646	6.5
688.402	5.5
689.157	6.5
689.912	6.5
690.668	8.5
691.423	7.5
692.178	3.5
692.933	5.5
693.688	6.5
694.443	5.5
695.198	6.5
695.953	6.5
696.708	7.5
697.462	4.5
698.217	6.5
698.972	4.5
699.726	9.5
700.48	5.5
701.235	4.5
701.989	6.5
702.743	8.5
703.497	6.5
704.251	6.5
705.005	6.5
705.759	5.5
706.513	5.5
707.266	5.5
708.02	6.5
708.774	5.5
709.527	6.5
710.28	6.5
711.034	6.5
711.787	5.5
712.54	5.5
713.293	8.5
714.046	6.5
714.799	6.5
715.552	7.5
716.305	5.5
717.058	6.5
717.81	7.5
718.563	3.5
719.315	6.5
720.068	6.5
720.82	8.5
721.573	8.5
722.325	7.5
723.077	6.5
723.829	3.5
724.581	6.5
725.333	6.5
726.085	6.5
726.836	7.5
727.588	8.5
728.34	6.5
729.091	5.5
729.843	8.5
730.594	7.5
731.346	8.5
732.097	8.5
732.848	4.5
733.599	5.5
734.35	6.5
735.101	6.5
735.852	7.5
736.603	8.5
737.354	5.5
738.104	6.5
738.855	7.5
739.605	6.5
740.356	9.5
741.106	8.5
741.856	8.5
742.607	5.5
743.357	8.5
744.107	7.5
744.857	10.5
745.607	7.5
746.357	8.5
747.106	5.5
747.856	8.5
748.606	7.5
749.355	7.5
750.105	8.5
750.854	8.5
751.603	8.5
752.353	8.5
753.102	7.5
753.851	8.5
754.6	10.5
755.349	9.5
756.098	10.5
756.847	11.5
757.595	10.5
758.344	8.5
759.093	7.5
759.841	8.5
760.589	9.5
761.338	9.5
762.086	11.5
762.834	8.5
763.582	8.5
764.331	12.5
765.079	12.5
765.826	11.5
766.574	10.5
767.322	11.5
768.07	11.5
768.817	11.5
769.565	13.5
770.312	9.5
771.06	14.5
771.807	10.5
772.554	10.5
773.302	14.5
774.049	11.5
774.796	14.5
775.543	11.5
776.29	12.5
777.036	12.5
777.783	12.5
778.53	13.5
779.276	12.5
780.023	12.5
780.769	12.5
781.516	15.5
782.262	13.5
783.008	10.5
783.754	12.5
784.5	13.5
785.246	12.5
785.992	12.5
786.738	12.5
787.484	15.5
788.23	11.5
788.975	11.5
789.721	12.5
790.466	12.5
791.212	12.5
791.957	13.5
792.702	11.5
793.447	11.5
794.193	11.5
794.938	12.5
795.683	13.5
796.427	10.5
797.172	10.5
797.917	12.5
798.662	10.5
799.406	10.5
800.151	11.5
800.895	11.5
801.64	8.5
802.384	8.5
803.128	9.5
803.872	11.5
804.616	9.5
805.36	7.5
806.104	9.5
806.848	8.5
807.592	9.5
808.336	8.5
809.079	9.5
809.823	8.5
810.566	7.5
811.31	8.5
812.053	6.5
812.796	8.5
813.539	8.5
814.283	8.5
815.026	7.5
815.769	6.5
816.511	5.5
817.254	5.5
817.997	6.5
818.74	5.5
819.482	7.5
820.225	4.5
820.967	8.5
821.71	8.5
822.452	6.5
823.194	6.5
823.936	5.5
824.678	6.5
825.42	5.5
826.162	5.5
826.904	5.5
827.646	6.5
828.388	6.5
829.129	5.5
829.871	4.5
830.612	3.5
831.354	6.5
832.095	5.5
832.836	3.5
833.577	6.5
834.319	4.5
835.06	6.5
835.801	3.5
836.542	7.5
837.282	2.5
838.023	6.5
838.764	8.5
839.504	3.5
840.245	4.5
840.985	2.5
841.726	4.5
842.466	6.5
843.206	4.5
843.946	4.5
844.687	3.5
845.427	2.5
846.166	2.5
846.906	5.5
847.646	5.5
848.386	4.5
849.125	2.5
849.865	2.5
850.605	4.5
851.344	3.5
852.083	4.5
852.823	4.5
853.562	3.5
854.301	4.5
855.04	4.5
855.779	4.5
856.518	2.5
857.257	4.5
857.995	3.5
858.734	3.5
859.473	2.5
860.211	4.5
860.95	2.5
861.688	2.5
862.426	2.5
863.165	4.5
863.903	2.5
864.641	2.5
865.379	3.5
866.117	3.5
866.855	0.5
867.593	1.5
868.33	1.5
869.068	1.5
869.806	1.5
870.543	1.5
871.28	3.5
872.018	0.5
872.755	4.5
873.492	0.5
874.229	3.5
874.967	1.5
875.703	2.5
876.44	0.5
877.177	2.5
877.914	0.5
878.651	0.5
879.387	0.5
880.124	1.5
880.86	1.5
881.597	0.5
882.333	2.5
883.069	1.5
883.806	0.5
884.542	3.5
885.278	1.5
886.014	1.5
886.749	1.5
887.485	0.5
888.221	2.5
888.957	2.5
889.692	0.5
890.428	0.5
891.163	2.5
891.899	-0.5
892.634	-0.5
893.369	2.5
894.104	0.5
894.839	0.5
895.574	0.5
896.309	-1.5
897.044	-0.5
897.779	1.5
898.514	1.5
899.248	-0.5
899.983	0.5
900.717	0.5
901.452	1.5
902.186	-0.5
902.92	0.5
903.654	4.5
904.389	0.5
905.123	2.5
905.857	-0.5
906.59	0.5
907.324	1.5
908.058	0.5
908.792	1.5
909.525	2.5
910.259	-0.5
910.992	0.5
911.726	2.5
912.459	2.5
913.192	-1.5
913.925	1.5
914.658	0.5
915.391	0.5
916.124	1.5
916.857	-0.5
917.59	0.5
918.323	-0.5
919.055	-0.5
919.788	1.5
920.521	3.5
921.253	0.5
921.985	1.5
922.718	1.5
923.45	-2.5
924.182	-0.5
924.914	0.5
925.646	0.5
926.378	-0.5
927.11	0.5
927.841	1.5
928.573	0.5
929.305	0.5
930.036	1.5
930.768	1.5
931.499	1.5
932.23	0.5
932.962	2.5
933.693	1.5
934.424	0.5
935.155	-0.5
935.886	-1.5
936.617	0.5
937.348	0.5
938.078	-0.5
938.809	2.5
939.54	0.5
940.27	1.5
941.001	0.5
941.731	0.5
942.461	0.5
943.191	-1.5
943.922	-0.5
944.652	-1.5
945.382	0.5
946.112	0.5
946.841	-1.5
947.571	0.5
948.301	-1.5
949.031	-1.5
949.76	-0.5
950.49	0.5
951.219	1.5
951.948	1.5
952.678	1.5
953.407	0.5
954.136	-1.5
954.865	-0.5
955.594	0.5
956.323	0.5
957.052	-1.5
957.78	0.5
958.509	1.5
959.238	0.5
959.966	-0.5
960.695	0.5
961.423	1.5
962.151	0.5
962.88	0.5
963.608	-0.5
964.336	-0.5
965.064	-0.5
965.792	-0.5
966.52	1.5
967.247	-0.5
967.975	0.5
968.703	0.5
969.43	0.5
970.158	1.5
970.885	-1.5
971.613	2.5
972.34	-1.5
973.067	0.5
973.794	0.5
974.521	-0.5
975.248	0.5
975.975	0.5
976.702	1.5
977.429	0.5
978.156	-0.5
978.882	0.5
979.609	0.5
980.335	1.5
981.062	-1.5
981.788	0.5
982.514	-0.5
983.24	1.5
983.967	0.5
984.693	-0.5
985.419	-1.5
986.144	1.5
986.87	2.5
987.596	0.5
988.322	1.5
989.047	-1.5
989.773	0.5
990.498	0.5
991.224	2.5
991.949	0.5
992.674	-2.5
993.399	1.5
994.124	-0.5
994.849	-1.5
995.574	-0.5
996.299	1.5
997.024	1.5
997.749	-0.5
998.473	0.5
999.198	0.5
999.922	-0.5
1000.647	0.5
1001.371	3.5
1002.095	-0.5
1002.82	-1.5
1003.544	0.5
1004.268	2.5
1004.992	5.5
1005.716	1.5
1006.439	0.5
1007.163	4.5
1007.887	5.5
1008.611	1.5
1009.334	-2.5
1010.058	0.5
1010.781	-2.5
1011.504	-0.5
1012.228	-1.5
1012.951	-0.5
1013.674	-0.5
1014.397	0.5
1015.12	-1.5
