节点500_565_QEPB04081__284__09-55-08-552.txt的数据

Date: Thu Nov 13 09:55:08 CST 2025
User: PC
Spectrometer: QEPB0408
触发模式: 0
积分时间 (秒): 1.000000E-2
Scans to average: 1
启用暗噪声校正: true
启用非线性校正: false
滑动平均宽度: 0
X轴模式: Wavelengths
Number of Pixels in Spectrum: 1044
>>>>>Begin Spectral Data<<<<<
220.843	3.5
221.644	1.5
222.444	3.5
223.244	3.5
224.045	4.5
224.845	3.5
225.645	6.5
226.445	5.5
227.245	3.5
228.045	5.5
228.845	5.5
229.645	6.5
230.444	6.5
231.244	4.5
232.043	5.5
232.843	8.5
233.642	7.5
234.442	5.5
235.241	9.5
236.04	6.5
236.839	9.5
237.638	9.5
238.437	5.5
239.236	8.5
240.035	6.5
240.833	9.5
241.632	9.5
242.43	10.5
243.229	8.5
244.027	11.5
244.826	12.5
245.624	11.5
246.422	13.5
247.22	9.5
248.018	11.5
248.816	13.5
249.614	13.5
250.412	12.5
251.21	13.5
252.007	13.5
252.805	13.5
253.602	13.5
254.4	13.5
255.197	14.5
255.994	16.5
256.791	15.5
257.589	18.5
258.386	18.5
259.183	16.5
259.979	19.5
260.776	17.5
261.573	18.5
262.37	20.5
263.166	21.5
263.963	20.5
264.759	23.5
265.556	24.5
266.352	22.5
267.148	23.5
267.944	21.5
268.74	24.5
269.536	23.5
270.332	24.5
271.128	27.5
271.924	25.5
272.719	24.5
273.515	27.5
274.311	25.5
275.106	27.5
275.901	30.5
276.697	28.5
277.492	25.5
278.287	27.5
279.082	28.5
279.877	28.5
280.672	27.5
281.467	29.5
282.262	27.5
283.056	28.5
283.851	28.5
284.646	28.5
285.44	28.5
286.234	28.5
287.029	28.5
287.823	28.5
288.617	30.5
289.411	26.5
290.205	28.5
290.999	25.5
291.793	26.5
292.587	27.5
293.381	26.5
294.174	25.5
294.968	26.5
295.761	23.5
296.555	23.5
297.348	21.5
298.141	22.5
298.935	25.5
299.728	23.5
300.521	20.5
301.314	20.5
302.107	18.5
302.899	20.5
303.692	22.5
304.485	17.5
305.277	18.5
306.07	18.5
306.862	19.5
307.655	18.5
308.447	15.5
309.239	18.5
310.031	14.5
310.823	15.5
311.615	15.5
312.407	18.5
313.199	13.5
313.991	13.5
314.783	13.5
315.574	13.5
316.366	12.5
317.157	13.5
317.949	12.5
318.74	10.5
319.531	12.5
320.322	12.5
321.113	12.5
321.904	15.5
322.695	14.5
323.486	9.5
324.277	12.5
325.068	10.5
325.858	12.5
326.649	11.5
327.439	11.5
328.23	11.5
329.02	12.5
329.81	11.5
330.6	8.5
331.391	9.5
332.181	9.5
332.971	9.5
333.76	11.5
334.55	12.5
335.34	10.5
336.13	9.5
336.919	8.5
337.709	7.5
338.498	9.5
339.287	7.5
340.077	9.5
340.866	9.5
341.655	8.5
342.444	10.5
343.233	5.5
344.022	10.5
344.811	11.5
345.6	10.5
346.388	11.5
347.177	5.5
347.965	8.5
348.754	9.5
349.542	12.5
350.33	9.5
351.119	11.5
351.907	11.5
352.695	9.5
353.483	10.5
354.271	8.5
355.059	9.5
355.846	6.5
356.634	11.5
357.422	9.5
358.209	6.5
358.997	8.5
359.784	9.5
360.571	7.5
361.359	8.5
362.146	9.5
362.933	9.5
363.72	7.5
364.507	7.5
365.294	7.5
366.081	8.5
366.867	6.5
367.654	6.5
368.44	8.5
369.227	7.5
370.013	8.5
370.8	7.5
371.586	5.5
372.372	8.5
373.158	8.5
373.944	9.5
374.73	8.5
375.516	8.5
376.302	8.5
377.088	6.5
377.873	6.5
378.659	10.5
379.445	7.5
380.23	8.5
381.015	10.5
381.801	7.5
382.586	9.5
383.371	7.5
384.156	6.5
384.941	9.5
385.726	6.5
386.511	12.5
387.296	9.5
388.08	8.5
388.865	7.5
389.649	10.5
390.434	9.5
391.218	7.5
392.003	11.5
392.787	8.5
393.571	9.5
394.355	7.5
395.139	10.5
395.923	9.5
396.707	11.5
397.491	9.5
398.274	12.5
399.058	15.5
399.842	11.5
400.625	9.5
401.408	11.5
402.192	10.5
402.975	13.5
403.758	11.5
404.541	9.5
405.324	8.5
406.107	12.5
406.89	13.5
407.673	11.5
408.456	12.5
409.238	10.5
410.021	11.5
410.803	15.5
411.586	13.5
412.368	14.5
413.151	12.5
413.933	15.5
414.715	12.5
415.497	14.5
416.279	14.5
417.061	16.5
417.843	15.5
418.624	16.5
419.406	17.5
420.188	19.5
420.969	16.5
421.751	17.5
422.532	20.5
423.313	16.5
424.095	21.5
424.876	20.5
425.657	21.5
426.438	18.5
427.219	22.5
428	22.5
428.78	21.5
429.561	25.5
430.342	24.5
431.122	27.5
431.903	27.5
432.683	28.5
433.464	28.5
434.244	30.5
435.024	31.5
435.804	34.5
436.584	34.5
437.364	36.5
438.144	39.5
438.924	39.5
439.704	40.5
440.483	45.5
441.263	51.5
442.042	49.5
442.822	53.5
443.601	54.5
444.38	59.5
445.16	68.5
445.939	71.5
446.718	81.5
447.497	83.5
448.276	88.5
449.054	101.5
449.833	108.5
450.612	119.5
451.391	132.5
452.169	151.5
452.948	159.5
453.726	168.5
454.504	193.5
455.282	213.5
456.061	243.5
456.839	276.5
457.617	306.5
458.395	342.5
459.172	373.5
459.95	416.5
460.728	468.5
461.506	515.5
462.283	587.5
463.061	647.5
463.838	716.5
464.615	801.5
465.393	889.5
466.17	991.5
466.947	1109.5
467.724	1241.5
468.501	1379.5
469.278	1527.5
470.055	1682.5
470.831	1853.5
471.608	2056.5
472.385	2300.5
473.161	2530.5
473.938	2789.5
474.714	3053.5
475.49	3386.5
476.266	3698.5
477.043	4080.5
477.819	4463.5
478.595	4900.5
479.371	5357.5
480.146	5881.5
480.922	6423.5
481.698	7019.5
482.473	7663.5
483.249	8300.5
484.024	9062.5
484.8	9907.5
485.575	10780.5
486.35	11660.5
487.126	12707.5
487.901	13737.5
488.676	14930.5
489.451	16166.5
490.225	17489.5
491	18798.5
491.775	20259.5
492.55	21740.5
493.324	23273.5
494.099	24829.5
494.873	26499.5
495.647	28107.5
496.422	29757.5
497.196	31345.5
497.97	32884.5
498.744	34417.5
499.518	35706.5
500.292	37090.5
501.066	38186.5
501.839	39296.5
502.613	40114.5
503.387	40780.5
504.16	41427.5
504.934	41569.5
505.707	41606.5
506.48	41443.5
507.253	41130.5
508.027	40412.5
508.8	39627.5
509.573	38778.5
510.346	37727.5
511.118	36748.5
511.891	35682.5
512.664	34389.5
513.437	33049.5
514.209	31758.5
514.982	30592.5
515.754	29420.5
516.526	28132.5
517.298	26964.5
518.071	25870.5
518.843	24864.5
519.615	23832.5
520.387	22812.5
521.159	21925.5
521.93	21128.5
522.702	20179.5
523.474	19363.5
524.245	18623.5
525.017	17843.5
525.788	17100.5
526.56	16228.5
527.331	15538.5
528.102	14853.5
528.873	14057.5
529.644	13385.5
530.415	12751.5
531.186	12102.5
531.957	11481.5
532.728	10876.5
533.498	10321.5
534.269	9720.5
535.039	9192.5
535.81	8761.5
536.58	8289.5
537.351	7836.5
538.121	7399.5
538.891	7024.5
539.661	6613.5
540.431	6275.5
541.201	5953.5
541.971	5637.5
542.741	5340.5
543.51	5045.5
544.28	4764.5
545.05	4568.5
545.819	4339.5
546.588	4112.5
547.358	3911.5
548.127	3720.5
548.896	3537.5
549.665	3362.5
550.434	3207.5
551.203	3033.5
551.972	2851.5
552.741	2712.5
553.51	2559.5
554.278	2412.5
555.047	2290.5
555.815	2181.5
556.584	2057.5
557.352	1912.5
558.121	1825.5
558.889	1724.5
559.657	1621.5
560.425	1515.5
561.193	1439.5
561.961	1367.5
562.729	1294.5
563.496	1223.5
564.264	1179.5
565.032	1098.5
565.799	1053.5
566.567	985.5
567.334	934.5
568.101	877.5
568.869	825.5
569.636	780.5
570.403	736.5
571.17	687.5
571.937	666.5
572.704	623.5
573.471	584.5
574.237	559.5
575.004	531.5
575.771	493.5
576.537	465.5
577.303	441.5
578.07	418.5
578.836	388.5
579.602	370.5
580.368	349.5
581.134	328.5
581.9	318.5
582.666	298.5
583.432	279.5
584.198	266.5
584.964	260.5
585.729	244.5
586.495	233.5
587.26	216.5
588.025	208.5
588.791	193.5
589.556	183.5
590.321	178.5
591.086	168.5
591.851	157.5
592.616	151.5
593.381	150.5
594.146	132.5
594.911	139.5
595.675	129.5
596.44	121.5
597.204	115.5
597.969	113.5
598.733	105.5
599.497	104.5
600.261	96.5
601.025	93.5
601.79	89.5
602.553	81.5
603.317	85.5
604.081	80.5
604.845	76.5
605.609	73.5
606.372	69.5
607.136	64.5
607.899	61.5
608.662	62.5
609.426	59.5
610.189	55.5
610.952	51.5
611.715	54.5
612.478	50.5
613.241	49.5
614.004	50.5
614.767	47.5
615.529	43.5
616.292	44.5
617.055	39.5
617.817	38.5
618.579	37.5
619.342	41.5
620.104	33.5
620.866	35.5
621.628	33.5
622.39	33.5
623.152	32.5
623.914	32.5
624.676	28.5
625.438	28.5
626.199	25.5
626.961	29.5
627.722	24.5
628.484	27.5
629.245	23.5
630.006	24.5
630.768	22.5
631.529	23.5
632.29	20.5
633.051	20.5
633.812	20.5
634.573	18.5
635.333	18.5
636.094	16.5
636.855	19.5
637.615	15.5
638.376	17.5
639.136	18.5
639.896	16.5
640.657	13.5
641.417	14.5
642.177	15.5
642.937	13.5
643.697	16.5
644.457	11.5
645.216	14.5
645.976	11.5
646.736	14.5
647.495	12.5
648.255	13.5
649.014	13.5
649.774	12.5
650.533	11.5
651.292	13.5
652.051	11.5
652.81	10.5
653.569	9.5
654.328	8.5
655.087	9.5
655.846	10.5
656.604	9.5
657.363	12.5
658.121	10.5
658.88	10.5
659.638	10.5
660.397	9.5
661.155	7.5
661.913	10.5
662.671	8.5
663.429	6.5
664.187	8.5
664.945	9.5
665.703	4.5
666.46	8.5
667.218	8.5
667.976	8.5
668.733	9.5
669.49	10.5
670.248	7.5
671.005	6.5
671.762	6.5
672.519	8.5
673.276	7.5
674.033	8.5
674.79	6.5
675.547	9.5
676.304	5.5
677.06	7.5
677.817	6.5
678.574	7.5
679.33	5.5
680.086	7.5
680.843	6.5
681.599	7.5
682.355	7.5
683.111	6.5
683.867	6.5
684.623	6.5
685.379	8.5
686.135	7.5
686.89	5.5
687.646	5.5
688.402	6.5
689.157	6.5
689.912	6.5
690.668	8.5
691.423	8.5
692.178	4.5
692.933	4.5
693.688	6.5
694.443	4.5
695.198	6.5
695.953	7.5
696.708	5.5
697.462	6.5
698.217	6.5
698.972	4.5
699.726	6.5
700.48	3.5
701.235	5.5
701.989	7.5
702.743	6.5
703.497	6.5
704.251	6.5
705.005	8.5
705.759	6.5
706.513	4.5
707.266	4.5
708.02	5.5
708.774	6.5
709.527	4.5
710.28	6.5
711.034	3.5
711.787	6.5
712.54	3.5
713.293	5.5
714.046	6.5
714.799	6.5
715.552	6.5
716.305	6.5
717.058	5.5
717.81	4.5
718.563	4.5
719.315	7.5
720.068	7.5
720.82	8.5
721.573	5.5
722.325	5.5
723.077	6.5
723.829	8.5
724.581	4.5
725.333	5.5
726.085	6.5
726.836	6.5
727.588	8.5
728.34	6.5
729.091	7.5
729.843	7.5
730.594	8.5
731.346	6.5
732.097	6.5
732.848	8.5
733.599	6.5
734.35	8.5
735.101	5.5
735.852	5.5
736.603	7.5
737.354	7.5
738.104	9.5
738.855	6.5
739.605	8.5
740.356	5.5
741.106	8.5
741.856	8.5
742.607	8.5
743.357	8.5
744.107	8.5
744.857	8.5
745.607	5.5
746.357	8.5
747.106	9.5
747.856	9.5
748.606	10.5
749.355	6.5
750.105	10.5
750.854	8.5
751.603	6.5
752.353	9.5
753.102	7.5
753.851	9.5
754.6	7.5
755.349	11.5
756.098	7.5
756.847	11.5
757.595	10.5
758.344	8.5
759.093	11.5
759.841	10.5
760.589	9.5
761.338	8.5
762.086	11.5
762.834	9.5
763.582	10.5
764.331	10.5
765.079	12.5
765.826	10.5
766.574	11.5
767.322	10.5
768.07	10.5
768.817	9.5
769.565	10.5
770.312	11.5
771.06	9.5
771.807	10.5
772.554	12.5
773.302	12.5
774.049	12.5
774.796	14.5
775.543	15.5
776.29	11.5
777.036	12.5
777.783	12.5
778.53	12.5
779.276	9.5
780.023	12.5
780.769	10.5
781.516	12.5
782.262	15.5
783.008	12.5
783.754	11.5
784.5	13.5
785.246	14.5
785.992	12.5
786.738	13.5
787.484	11.5
788.23	13.5
788.975	15.5
789.721	12.5
790.466	12.5
791.212	12.5
791.957	12.5
792.702	12.5
793.447	12.5
794.193	10.5
794.938	12.5
795.683	11.5
796.427	11.5
797.172	13.5
797.917	12.5
798.662	11.5
799.406	11.5
800.151	11.5
800.895	8.5
801.64	8.5
802.384	12.5
803.128	9.5
803.872	10.5
804.616	9.5
805.36	8.5
806.104	8.5
806.848	7.5
807.592	10.5
808.336	7.5
809.079	5.5
809.823	8.5
810.566	7.5
811.31	8.5
812.053	6.5
812.796	11.5
813.539	6.5
814.283	9.5
815.026	7.5
815.769	6.5
816.511	6.5
817.254	6.5
817.997	6.5
818.74	6.5
819.482	7.5
820.225	7.5
820.967	6.5
821.71	7.5
822.452	5.5
823.194	5.5
823.936	4.5
824.678	4.5
825.42	6.5
826.162	7.5
826.904	7.5
827.646	5.5
828.388	4.5
829.129	4.5
829.871	3.5
830.612	7.5
831.354	6.5
832.095	3.5
832.836	5.5
833.577	6.5
834.319	4.5
835.06	4.5
835.801	6.5
836.542	5.5
837.282	5.5
838.023	4.5
838.764	4.5
839.504	3.5
840.245	4.5
840.985	3.5
841.726	5.5
842.466	6.5
843.206	3.5
843.946	5.5
844.687	2.5
845.427	3.5
846.166	4.5
846.906	4.5
847.646	4.5
848.386	1.5
849.125	4.5
849.865	5.5
850.605	3.5
851.344	4.5
852.083	2.5
852.823	3.5
853.562	1.5
854.301	2.5
855.04	3.5
855.779	1.5
856.518	3.5
857.257	5.5
857.995	2.5
858.734	4.5
859.473	2.5
860.211	1.5
860.95	2.5
861.688	3.5
862.426	3.5
863.165	4.5
863.903	3.5
864.641	3.5
865.379	1.5
866.117	2.5
866.855	1.5
867.593	1.5
868.33	1.5
869.068	-0.5
869.806	3.5
870.543	2.5
871.28	0.5
872.018	2.5
872.755	1.5
873.492	1.5
874.229	3.5
874.967	0.5
875.703	1.5
876.44	1.5
877.177	0.5
877.914	2.5
878.651	1.5
879.387	3.5
880.124	1.5
880.86	0.5
881.597	1.5
882.333	0.5
883.069	1.5
883.806	0.5
884.542	2.5
885.278	2.5
886.014	2.5
886.749	1.5
887.485	1.5
888.221	-0.5
888.957	0.5
889.692	1.5
890.428	2.5
891.163	0.5
891.899	0.5
892.634	1.5
893.369	1.5
894.104	-1.5
894.839	4.5
895.574	2.5
896.309	-0.5
897.044	0.5
897.779	0.5
898.514	2.5
899.248	1.5
899.983	3.5
900.717	0.5
901.452	1.5
902.186	1.5
902.92	0.5
903.654	-0.5
904.389	-0.5
905.123	0.5
905.857	1.5
906.59	-1.5
907.324	-1.5
908.058	-1.5
908.792	0.5
909.525	-1.5
910.259	-1.5
910.992	-0.5
911.726	2.5
912.459	-2.5
913.192	1.5
913.925	0.5
914.658	0.5
915.391	-1.5
916.124	2.5
916.857	-0.5
917.59	0.5
918.323	-0.5
919.055	-1.5
919.788	0.5
920.521	0.5
921.253	-0.5
921.985	2.5
922.718	-0.5
923.45	0.5
924.182	-2.5
924.914	-1.5
925.646	0.5
926.378	0.5
927.11	-0.5
927.841	-1.5
928.573	1.5
929.305	0.5
930.036	0.5
930.768	0.5
931.499	1.5
932.23	1.5
932.962	-0.5
933.693	1.5
934.424	0.5
935.155	-2.5
935.886	0.5
936.617	0.5
937.348	-0.5
938.078	-1.5
938.809	0.5
939.54	1.5
940.27	-0.5
941.001	0.5
941.731	-1.5
942.461	0.5
943.191	0.5
943.922	1.5
944.652	1.5
945.382	-1.5
946.112	0.5
946.841	-0.5
947.571	-0.5
948.301	-0.5
949.031	0.5
949.76	0.5
950.49	-0.5
951.219	0.5
951.948	-0.5
952.678	1.5
953.407	-0.5
954.136	0.5
954.865	2.5
955.594	0.5
956.323	2.5
957.052	0.5
957.78	1.5
958.509	1.5
959.238	-0.5
959.966	0.5
960.695	0.5
961.423	0.5
962.151	-0.5
962.88	2.5
963.608	0.5
964.336	-0.5
965.064	-1.5
965.792	0.5
966.52	-0.5
967.247	-1.5
967.975	2.5
968.703	1.5
969.43	1.5
970.158	-0.5
970.885	-1.5
971.613	-0.5
972.34	-1.5
973.067	-0.5
973.794	0.5
974.521	0.5
975.248	-0.5
975.975	0.5
976.702	2.5
977.429	-1.5
978.156	2.5
978.882	0.5
979.609	1.5
980.335	-0.5
981.062	-0.5
981.788	1.5
982.514	0.5
983.24	1.5
983.967	-0.5
984.693	0.5
985.419	-1.5
986.144	-0.5
986.87	0.5
987.596	0.5
988.322	0.5
989.047	-2.5
989.773	3.5
990.498	0.5
991.224	-0.5
991.949	-0.5
992.674	0.5
993.399	-0.5
994.124	-0.5
994.849	0.5
995.574	-0.5
996.299	-2.5
997.024	-2.5
997.749	-2.5
998.473	1.5
999.198	-1.5
999.922	-0.5
1000.647	0.5
1001.371	4.5
1002.095	-1.5
1002.82	-0.5
1003.544	-1.5
1004.268	3.5
1004.992	3.5
1005.716	3.5
1006.439	3.5
1007.163	3.5
1007.887	2.5
1008.611	0.5
1009.334	-1.5
1010.058	0.5
1010.781	0.5
1011.504	-0.5
1012.228	0.5
1012.951	0.5
1013.674	0.5
1014.397	-2.5
1015.12	0.5
