节点500_705_QEPB04081__90__20-47-23-240.txt的数据

Date: Wed Nov 12 20:47:23 CST 2025
User: PC
Spectrometer: QEPB0408
触发模式: 0
积分时间 (秒): 1.000000E-2
Scans to average: 1
启用暗噪声校正: true
启用非线性校正: false
滑动平均宽度: 0
X轴模式: Wavelengths
Number of Pixels in Spectrum: 1044
>>>>>Begin Spectral Data<<<<<
220.843	5.12
221.644	6.12
222.444	3.12
223.244	7.12
224.045	8.12
224.845	6.12
225.645	8.12
226.445	10.12
227.245	6.12
228.045	7.12
228.845	8.12
229.645	9.12
230.444	6.12
231.244	10.12
232.043	9.12
232.843	10.12
233.642	10.12
234.442	9.12
235.241	10.12
236.04	11.12
236.839	12.12
237.638	10.12
238.437	12.12
239.236	11.12
240.035	15.12
240.833	13.12
241.632	13.12
242.43	12.12
243.229	11.12
244.027	13.12
244.826	15.12
245.624	15.12
246.422	15.12
247.22	15.12
248.018	15.12
248.816	15.12
249.614	15.12
250.412	16.12
251.21	17.12
252.007	16.12
252.805	19.12
253.602	19.12
254.4	19.12
255.197	22.12
255.994	21.12
256.791	18.12
257.589	23.12
258.386	22.12
259.183	26.12
259.979	26.12
260.776	21.12
261.573	27.12
262.37	26.12
263.166	26.12
263.963	27.12
264.759	30.12
265.556	29.12
266.352	29.12
267.148	32.12
267.944	33.12
268.74	33.12
269.536	31.12
270.332	30.12
271.128	32.12
271.924	35.12
272.719	35.12
273.515	35.12
274.311	36.12
275.106	36.12
275.901	34.12
276.697	37.12
277.492	37.12
278.287	39.12
279.082	34.12
279.877	35.12
280.672	36.12
281.467	35.12
282.262	37.12
283.056	37.12
283.851	38.12
284.646	36.12
285.44	32.12
286.234	37.12
287.029	38.12
287.823	37.12
288.617	35.12
289.411	33.12
290.205	37.12
290.999	33.12
291.793	31.12
292.587	31.12
293.381	30.12
294.174	30.12
294.968	30.12
295.761	28.12
296.555	25.12
297.348	26.12
298.141	26.12
298.935	27.12
299.728	26.12
300.521	25.12
301.314	25.12
302.107	22.12
302.899	22.12
303.692	21.12
304.485	24.12
305.277	24.12
306.07	25.12
306.862	23.12
307.655	21.12
308.447	19.12
309.239	21.12
310.031	18.12
310.823	22.12
311.615	19.12
312.407	19.12
313.199	17.12
313.991	18.12
314.783	19.12
315.574	15.12
316.366	15.12
317.157	17.12
317.949	16.12
318.74	15.12
319.531	14.12
320.322	13.12
321.113	13.12
321.904	14.12
322.695	14.12
323.486	12.12
324.277	15.12
325.068	15.12
325.858	15.12
326.649	11.12
327.439	14.12
328.23	12.12
329.02	13.12
329.81	16.12
330.6	12.12
331.391	13.12
332.181	13.12
332.971	13.12
333.76	13.12
334.55	11.12
335.34	11.12
336.13	13.12
336.919	13.12
337.709	12.12
338.498	12.12
339.287	13.12
340.077	11.12
340.866	13.12
341.655	14.12
342.444	14.12
343.233	11.12
344.022	12.12
344.811	11.12
345.6	11.12
346.388	12.12
347.177	11.12
347.965	11.12
348.754	12.12
349.542	13.12
350.33	12.12
351.119	10.12
351.907	11.12
352.695	10.12
353.483	11.12
354.271	13.12
355.059	10.12
355.846	12.12
356.634	10.12
357.422	11.12
358.209	12.12
358.997	9.12
359.784	11.12
360.571	11.12
361.359	12.12
362.146	11.12
362.933	11.12
363.72	9.12
364.507	9.12
365.294	11.12
366.081	11.12
366.867	10.12
367.654	9.12
368.44	11.12
369.227	11.12
370.013	9.12
370.8	9.12
371.586	8.12
372.372	9.12
373.158	10.12
373.944	11.12
374.73	9.12
375.516	12.12
376.302	9.12
377.088	11.12
377.873	9.12
378.659	13.12
379.445	11.12
380.23	13.12
381.015	9.12
381.801	11.12
382.586	11.12
383.371	11.12
384.156	10.12
384.941	10.12
385.726	12.12
386.511	12.12
387.296	11.12
388.08	14.12
388.865	12.12
389.649	11.12
390.434	15.12
391.218	13.12
392.003	11.12
392.787	10.12
393.571	13.12
394.355	12.12
395.139	13.12
395.923	13.12
396.707	14.12
397.491	15.12
398.274	13.12
399.058	14.12
399.842	12.12
400.625	13.12
401.408	14.12
402.192	14.12
402.975	15.12
403.758	15.12
404.541	14.12
405.324	15.12
406.107	15.12
406.89	15.12
407.673	13.12
408.456	15.12
409.238	15.12
410.021	18.12
410.803	17.12
411.586	19.12
412.368	19.12
413.151	20.12
413.933	21.12
414.715	19.12
415.497	19.12
416.279	21.12
417.061	19.12
417.843	22.12
418.624	21.12
419.406	24.12
420.188	21.12
420.969	20.12
421.751	21.12
422.532	23.12
423.313	26.12
424.095	24.12
424.876	27.12
425.657	25.12
426.438	26.12
427.219	29.12
428	27.12
428.78	29.12
429.561	30.12
430.342	33.12
431.122	31.12
431.903	33.12
432.683	35.12
433.464	35.12
434.244	38.12
435.024	39.12
435.804	39.12
436.584	46.12
437.364	46.12
438.144	46.12
438.924	52.12
439.704	53.12
440.483	56.12
441.263	57.12
442.042	62.12
442.822	67.12
443.601	71.12
444.38	78.12
445.16	81.12
445.939	96.12
446.718	95.12
447.497	109.12
448.276	117.12
449.054	132.12
449.833	135.12
450.612	152.12
451.391	163.12
452.169	183.12
452.948	200.12
453.726	225.12
454.504	250.12
455.282	275.12
456.061	314.12
456.839	343.12
457.617	387.12
458.395	429.12
459.172	488.12
459.95	536.12
460.728	602.12
461.506	671.12
462.283	750.12
463.061	847.12
463.838	932.12
464.615	1057.12
465.393	1168.12
466.17	1301.12
466.947	1445.12
467.724	1601.12
468.501	1800.12
469.278	1999.12
470.055	2241.12
470.831	2474.12
471.608	2743.12
472.385	3023.12
473.161	3352.12
473.938	3708.12
474.714	4095.12
475.49	4513.12
476.266	4960.12
477.043	5440.12
477.819	5978.12
478.595	6580.12
479.371	7193.12
480.146	7883.12
480.922	8678.12
481.698	9474.12
482.473	10319.12
483.249	11339.12
484.024	12342.12
484.8	13459.12
485.575	14665.12
486.35	15929.12
487.126	17271.12
487.901	18767.12
488.676	20271.12
489.451	21933.12
490.225	23672.12
491	25484.12
491.775	27313.12
492.55	29129.12
493.324	31057.12
494.099	33053.12
494.873	35009.12
495.647	36924.12
496.422	38928.12
497.196	40804.12
497.97	42396.12
498.744	44040.12
499.518	45658.12
500.292	46938.12
501.066	47905.12
501.839	48578.12
502.613	49221.12
503.387	49644.12
504.16	49888.12
504.934	49724.12
505.707	49323.12
506.48	48669.12
507.253	47862.12
508.027	46927.12
508.8	45621.12
509.573	44472.12
510.346	43124.12
511.118	41840.12
511.891	40370.12
512.664	38668.12
513.437	37171.12
514.209	35611.12
514.982	34220.12
515.754	32727.12
516.526	31359.12
517.298	30110.12
518.071	28796.12
518.843	27729.12
519.615	26529.12
520.387	25481.12
521.159	24482.12
521.93	23438.12
522.702	22489.12
523.474	21480.12
524.245	20551.12
525.017	19593.12
525.788	18715.12
526.56	17927.12
527.331	17066.12
528.102	16240.12
528.873	15400.12
529.644	14635.12
530.415	13885.12
531.186	13233.12
531.957	12530.12
532.728	11814.12
533.498	11194.12
534.269	10552.12
535.039	10010.12
535.81	9448.12
536.58	8930.12
537.351	8462.12
538.121	8043.12
538.891	7573.12
539.661	7158.12
540.431	6763.12
541.201	6385.12
541.971	6087.12
542.741	5751.12
543.51	5452.12
544.28	5211.12
545.05	4971.12
545.819	4721.12
546.588	4519.12
547.358	4299.12
548.127	4087.12
548.896	3849.12
549.665	3661.12
550.434	3467.12
551.203	3268.12
551.972	3108.12
552.741	2942.12
553.51	2768.12
554.278	2604.12
555.047	2463.12
555.815	2305.12
556.584	2217.12
557.352	2061.12
558.121	1971.12
558.889	1866.12
559.657	1743.12
560.425	1661.12
561.193	1559.12
561.961	1486.12
562.729	1423.12
563.496	1315.12
564.264	1247.12
565.032	1185.12
565.799	1126.12
566.567	1079.12
567.334	1005.12
568.101	951.12
568.869	897.12
569.636	843.12
570.403	806.12
571.17	764.12
571.937	718.12
572.704	673.12
573.471	649.12
574.237	591.12
575.004	569.12
575.771	527.12
576.537	500.12
577.303	469.12
578.07	446.12
578.836	418.12
579.602	400.12
580.368	380.12
581.134	363.12
581.9	345.12
582.666	324.12
583.432	318.12
584.198	292.12
584.964	279.12
585.729	271.12
586.495	249.12
587.26	236.12
588.025	226.12
588.791	214.12
589.556	198.12
590.321	195.12
591.086	182.12
591.851	174.12
592.616	167.12
593.381	161.12
594.146	153.12
594.911	148.12
595.675	141.12
596.44	132.12
597.204	130.12
597.969	123.12
598.733	118.12
599.497	116.12
600.261	102.12
601.025	104.12
601.79	96.12
602.553	95.12
603.317	91.12
604.081	87.12
604.845	86.12
605.609	80.12
606.372	79.12
607.136	74.12
607.899	75.12
608.662	68.12
609.426	65.12
610.189	65.12
610.952	62.12
611.715	58.12
612.478	57.12
613.241	54.12
614.004	55.12
614.767	55.12
615.529	50.12
616.292	48.12
617.055	47.12
617.817	45.12
618.579	44.12
619.342	42.12
620.104	44.12
620.866	40.12
621.628	37.12
622.39	33.12
623.152	38.12
623.914	35.12
624.676	34.12
625.438	35.12
626.199	32.12
626.961	34.12
627.722	27.12
628.484	32.12
629.245	30.12
630.006	30.12
630.768	27.12
631.529	28.12
632.29	26.12
633.051	25.12
633.812	23.12
634.573	25.12
635.333	22.12
636.094	22.12
636.855	22.12
637.615	22.12
638.376	22.12
639.136	21.12
639.896	20.12
640.657	17.12
641.417	18.12
642.177	18.12
642.937	19.12
643.697	17.12
644.457	15.12
645.216	15.12
645.976	17.12
646.736	15.12
647.495	15.12
648.255	13.12
649.014	13.12
649.774	12.12
650.533	15.12
651.292	12.12
652.051	13.12
652.81	14.12
653.569	16.12
654.328	15.12
655.087	15.12
655.846	13.12
656.604	10.12
657.363	12.12
658.121	14.12
658.88	12.12
659.638	13.12
660.397	12.12
661.155	11.12
661.913	11.12
662.671	12.12
663.429	9.12
664.187	10.12
664.945	13.12
665.703	14.12
666.46	11.12
667.218	11.12
667.976	9.12
668.733	13.12
669.49	8.12
670.248	11.12
671.005	9.12
671.762	11.12
672.519	9.12
673.276	8.12
674.033	7.12
674.79	9.12
675.547	9.12
676.304	10.12
677.06	9.12
677.817	7.12
678.574	6.12
679.33	7.12
680.086	8.12
680.843	8.12
681.599	9.12
682.355	8.12
683.111	8.12
683.867	9.12
684.623	8.12
685.379	9.12
686.135	9.12
686.89	8.12
687.646	7.12
688.402	8.12
689.157	8.12
689.912	8.12
690.668	8.12
691.423	9.12
692.178	7.12
692.933	5.12
693.688	8.12
694.443	8.12
695.198	5.12
695.953	8.12
696.708	9.12
697.462	8.12
698.217	5.12
698.972	9.12
699.726	7.12
700.48	7.12
701.235	9.12
701.989	8.12
702.743	8.12
703.497	9.12
704.251	8.12
705.005	8.12
705.759	8.12
706.513	7.12
707.266	7.12
708.02	10.12
708.774	9.12
709.527	7.12
710.28	7.12
711.034	8.12
711.787	9.12
712.54	7.12
713.293	6.12
714.046	8.12
714.799	9.12
715.552	9.12
716.305	12.12
717.058	11.12
717.81	6.12
718.563	8.12
719.315	8.12
720.068	9.12
720.82	8.12
721.573	9.12
722.325	10.12
723.077	10.12
723.829	9.12
724.581	7.12
725.333	7.12
726.085	9.12
726.836	11.12
727.588	6.12
728.34	9.12
729.091	8.12
729.843	8.12
730.594	9.12
731.346	9.12
732.097	9.12
732.848	10.12
733.599	12.12
734.35	8.12
735.101	9.12
735.852	11.12
736.603	11.12
737.354	8.12
738.104	11.12
738.855	10.12
739.605	9.12
740.356	10.12
741.106	11.12
741.856	9.12
742.607	8.12
743.357	9.12
744.107	15.12
744.857	12.12
745.607	11.12
746.357	12.12
747.106	12.12
747.856	11.12
748.606	10.12
749.355	12.12
750.105	12.12
750.854	11.12
751.603	11.12
752.353	11.12
753.102	11.12
753.851	11.12
754.6	11.12
755.349	11.12
756.098	12.12
756.847	11.12
757.595	11.12
758.344	15.12
759.093	13.12
759.841	13.12
760.589	13.12
761.338	12.12
762.086	15.12
762.834	12.12
763.582	14.12
764.331	15.12
765.079	14.12
765.826	11.12
766.574	15.12
767.322	15.12
768.07	15.12
768.817	14.12
769.565	14.12
770.312	15.12
771.06	15.12
771.807	17.12
772.554	14.12
773.302	13.12
774.049	18.12
774.796	15.12
775.543	16.12
776.29	17.12
777.036	13.12
777.783	13.12
778.53	16.12
779.276	17.12
780.023	15.12
780.769	16.12
781.516	15.12
782.262	16.12
783.008	18.12
783.754	16.12
784.5	16.12
785.246	17.12
785.992	13.12
786.738	18.12
787.484	16.12
788.23	18.12
788.975	16.12
789.721	16.12
790.466	16.12
791.212	15.12
791.957	15.12
792.702	15.12
793.447	13.12
794.193	15.12
794.938	15.12
795.683	14.12
796.427	13.12
797.172	14.12
797.917	13.12
798.662	11.12
799.406	11.12
800.151	11.12
800.895	14.12
801.64	13.12
802.384	11.12
803.128	14.12
803.872	9.12
804.616	13.12
805.36	12.12
806.104	11.12
806.848	11.12
807.592	11.12
808.336	11.12
809.079	9.12
809.823	11.12
810.566	10.12
811.31	8.12
812.053	9.12
812.796	8.12
813.539	8.12
814.283	9.12
815.026	9.12
815.769	10.12
816.511	9.12
817.254	7.12
817.997	8.12
818.74	9.12
819.482	7.12
820.225	8.12
820.967	7.12
821.71	7.12
822.452	9.12
823.194	6.12
823.936	9.12
824.678	6.12
825.42	5.12
826.162	6.12
826.904	7.12
827.646	7.12
828.388	8.12
829.129	4.12
829.871	7.12
830.612	7.12
831.354	6.12
832.095	7.12
832.836	5.12
833.577	6.12
834.319	6.12
835.06	5.12
835.801	3.12
836.542	6.12
837.282	6.12
838.023	5.12
838.764	7.12
839.504	6.12
840.245	6.12
840.985	5.12
841.726	6.12
842.466	4.12
843.206	5.12
843.946	4.12
844.687	5.12
845.427	3.12
846.166	4.12
846.906	6.12
847.646	5.12
848.386	6.12
849.125	5.12
849.865	1.12
850.605	7.12
851.344	3.12
852.083	5.12
852.823	3.12
853.562	3.12
854.301	5.12
855.04	4.12
855.779	3.12
856.518	4.12
857.257	5.12
857.995	4.12
858.734	4.12
859.473	4.12
860.211	4.12
860.95	4.12
861.688	5.12
862.426	5.12
863.165	3.12
863.903	2.12
864.641	4.12
865.379	2.12
866.117	3.12
866.855	1.12
867.593	3.12
868.33	2.12
869.068	3.12
869.806	2.12
870.543	2.12
871.28	5.12
872.018	2.12
872.755	1.12
873.492	3.12
874.229	4.12
874.967	4.12
875.703	2.12
876.44	3.12
877.177	2.12
877.914	3.12
878.651	2.12
879.387	1.12
880.124	3.12
880.86	2.12
881.597	0.12
882.333	1.12
883.069	3.12
883.806	4.12
884.542	2.12
885.278	1.12
886.014	0.12
886.749	3.12
887.485	1.12
888.221	2.12
888.957	3.12
889.692	-0.88
890.428	2.12
891.163	3.12
891.899	1.12
892.634	2.12
893.369	-0.88
894.104	0.12
894.839	2.12
895.574	-0.88
896.309	1.12
897.044	0.12
897.779	0.12
898.514	3.12
899.248	-0.88
899.983	0.12
900.717	1.12
901.452	0.12
902.186	1.12
902.92	3.12
903.654	4.12
904.389	0.12
905.123	0.12
905.857	1.12
906.59	-0.88
907.324	-0.88
908.058	4.12
908.792	0.12
909.525	2.12
910.259	0.12
910.992	0.12
911.726	3.12
912.459	-0.88
913.192	1.12
913.925	1.12
914.658	-0.88
915.391	1.12
916.124	-0.88
916.857	2.12
917.59	0.12
918.323	-1.88
919.055	3.12
919.788	1.12
920.521	1.12
921.253	1.12
921.985	2.12
922.718	1.12
923.45	-0.88
924.182	-1.88
924.914	0.12
925.646	0.12
926.378	-0.88
927.11	3.12
927.841	2.12
928.573	-2.88
929.305	1.12
930.036	-0.88
930.768	3.12
931.499	2.12
932.23	1.12
932.962	-0.88
933.693	0.12
934.424	2.12
935.155	-2.88
935.886	-0.88
936.617	0.12
937.348	-2.88
938.078	2.12
938.809	-0.88
939.54	3.12
940.27	1.12
941.001	2.12
941.731	0.12
942.461	3.12
943.191	1.12
943.922	-0.88
944.652	1.12
945.382	1.12
946.112	-0.88
946.841	2.12
947.571	1.12
948.301	1.12
949.031	0.12
949.76	2.12
950.49	1.12
951.219	0.12
951.948	-1.88
952.678	1.12
953.407	2.12
954.136	2.12
954.865	0.12
955.594	1.12
956.323	1.12
957.052	1.12
957.78	1.12
958.509	2.12
959.238	-2.88
959.966	0.12
960.695	-0.88
961.423	0.12
962.151	0.12
962.88	-0.88
963.608	0.12
964.336	2.12
965.064	-0.88
965.792	1.12
966.52	1.12
967.247	2.12
967.975	1.12
968.703	-0.88
969.43	0.12
970.158	0.12
970.885	-0.88
971.613	0.12
972.34	0.12
973.067	1.12
973.794	-2.88
974.521	1.12
975.248	0.12
975.975	2.12
976.702	3.12
977.429	0.12
978.156	-0.88
978.882	-0.88
979.609	2.12
980.335	-0.88
981.062	1.12
981.788	1.12
982.514	-0.88
983.24	1.12
983.967	0.12
984.693	1.12
985.419	0.12
986.144	1.12
986.87	1.12
987.596	1.12
988.322	0.12
989.047	-0.88
989.773	1.12
990.498	0.12
991.224	0.12
991.949	3.12
992.674	3.12
993.399	1.12
994.124	-0.88
994.849	2.12
995.574	1.12
996.299	0.12
997.024	3.12
997.749	-0.88
998.473	2.12
999.198	-0.88
999.922	1.12
1000.647	0.12
1001.371	4.12
1002.095	-0.88
1002.82	-0.88
1003.544	0.12
1004.268	6.12
1004.992	6.12
1005.716	8.12
1006.439	5.12
1007.163	6.12
1007.887	6.12
1008.611	1.12
1009.334	-1.88
1010.058	0.12
1010.781	0.12
1011.504	-0.88
1012.228	1.12
1012.951	-0.88
1013.674	-0.88
1014.397	-0.88
1015.12	0.12
