节点500_705_QEPB04081__241__20-49-20-464.txt的数据

Date: Wed Nov 12 20:49:20 CST 2025
User: PC
Spectrometer: QEPB0408
触发模式: 0
积分时间 (秒): 1.000000E-2
Scans to average: 1
启用暗噪声校正: true
启用非线性校正: false
滑动平均宽度: 0
X轴模式: Wavelengths
Number of Pixels in Spectrum: 1044
>>>>>Begin Spectral Data<<<<<
220.843	4.38
221.644	3.38
222.444	6.38
223.244	7.38
224.045	5.38
224.845	6.38
225.645	6.38
226.445	5.38
227.245	7.38
228.045	6.38
228.845	8.38
229.645	7.38
230.444	8.38
231.244	10.38
232.043	6.38
232.843	9.38
233.642	9.38
234.442	8.38
235.241	8.38
236.04	8.38
236.839	7.38
237.638	9.38
238.437	10.38
239.236	9.38
240.035	10.38
240.833	13.38
241.632	9.38
242.43	10.38
243.229	14.38
244.027	12.38
244.826	14.38
245.624	12.38
246.422	12.38
247.22	11.38
248.018	11.38
248.816	13.38
249.614	15.38
250.412	14.38
251.21	16.38
252.007	18.38
252.805	17.38
253.602	16.38
254.4	16.38
255.197	18.38
255.994	16.38
256.791	18.38
257.589	19.38
258.386	19.38
259.183	19.38
259.979	22.38
260.776	22.38
261.573	25.38
262.37	23.38
263.166	23.38
263.963	24.38
264.759	24.38
265.556	24.38
266.352	22.38
267.148	27.38
267.944	24.38
268.74	28.38
269.536	27.38
270.332	29.38
271.128	30.38
271.924	31.38
272.719	35.38
273.515	31.38
274.311	32.38
275.106	33.38
275.901	35.38
276.697	34.38
277.492	32.38
278.287	30.38
279.082	36.38
279.877	31.38
280.672	33.38
281.467	35.38
282.262	31.38
283.056	35.38
283.851	31.38
284.646	31.38
285.44	30.38
286.234	32.38
287.029	32.38
287.823	37.38
288.617	31.38
289.411	30.38
290.205	30.38
290.999	33.38
291.793	29.38
292.587	29.38
293.381	28.38
294.174	30.38
294.968	26.38
295.761	27.38
296.555	23.38
297.348	27.38
298.141	24.38
298.935	27.38
299.728	26.38
300.521	22.38
301.314	22.38
302.107	23.38
302.899	20.38
303.692	20.38
304.485	17.38
305.277	18.38
306.07	19.38
306.862	22.38
307.655	22.38
308.447	20.38
309.239	18.38
310.031	18.38
310.823	19.38
311.615	15.38
312.407	15.38
313.199	15.38
313.991	15.38
314.783	16.38
315.574	12.38
316.366	17.38
317.157	13.38
317.949	13.38
318.74	17.38
319.531	13.38
320.322	13.38
321.113	13.38
321.904	11.38
322.695	12.38
323.486	12.38
324.277	12.38
325.068	11.38
325.858	13.38
326.649	14.38
327.439	13.38
328.23	12.38
329.02	14.38
329.81	12.38
330.6	13.38
331.391	12.38
332.181	12.38
332.971	10.38
333.76	11.38
334.55	12.38
335.34	11.38
336.13	12.38
336.919	13.38
337.709	13.38
338.498	9.38
339.287	11.38
340.077	9.38
340.866	10.38
341.655	10.38
342.444	8.38
343.233	12.38
344.022	7.38
344.811	12.38
345.6	12.38
346.388	11.38
347.177	11.38
347.965	9.38
348.754	13.38
349.542	10.38
350.33	8.38
351.119	9.38
351.907	12.38
352.695	10.38
353.483	8.38
354.271	9.38
355.059	10.38
355.846	10.38
356.634	8.38
357.422	8.38
358.209	10.38
358.997	9.38
359.784	12.38
360.571	10.38
361.359	8.38
362.146	9.38
362.933	8.38
363.72	11.38
364.507	10.38
365.294	8.38
366.081	8.38
366.867	7.38
367.654	10.38
368.44	10.38
369.227	11.38
370.013	10.38
370.8	10.38
371.586	8.38
372.372	7.38
373.158	8.38
373.944	9.38
374.73	10.38
375.516	9.38
376.302	10.38
377.088	9.38
377.873	9.38
378.659	10.38
379.445	8.38
380.23	10.38
381.015	10.38
381.801	9.38
382.586	8.38
383.371	10.38
384.156	9.38
384.941	8.38
385.726	10.38
386.511	10.38
387.296	10.38
388.08	8.38
388.865	10.38
389.649	11.38
390.434	13.38
391.218	10.38
392.003	10.38
392.787	8.38
393.571	8.38
394.355	9.38
395.139	12.38
395.923	11.38
396.707	9.38
397.491	12.38
398.274	10.38
399.058	12.38
399.842	14.38
400.625	14.38
401.408	12.38
402.192	11.38
402.975	14.38
403.758	12.38
404.541	16.38
405.324	13.38
406.107	13.38
406.89	16.38
407.673	13.38
408.456	14.38
409.238	16.38
410.021	13.38
410.803	17.38
411.586	16.38
412.368	16.38
413.151	18.38
413.933	22.38
414.715	15.38
415.497	18.38
416.279	17.38
417.061	19.38
417.843	15.38
418.624	19.38
419.406	20.38
420.188	18.38
420.969	18.38
421.751	20.38
422.532	21.38
423.313	21.38
424.095	23.38
424.876	20.38
425.657	22.38
426.438	22.38
427.219	25.38
428	25.38
428.78	29.38
429.561	27.38
430.342	28.38
431.122	32.38
431.903	30.38
432.683	34.38
433.464	30.38
434.244	37.38
435.024	36.38
435.804	36.38
436.584	42.38
437.364	44.38
438.144	42.38
438.924	49.38
439.704	51.38
440.483	55.38
441.263	58.38
442.042	62.38
442.822	67.38
443.601	61.38
444.38	72.38
445.16	78.38
445.939	88.38
446.718	95.38
447.497	104.38
448.276	112.38
449.054	123.38
449.833	133.38
450.612	146.38
451.391	163.38
452.169	180.38
452.948	201.38
453.726	221.38
454.504	246.38
455.282	278.38
456.061	305.38
456.839	344.38
457.617	379.38
458.395	428.38
459.172	478.38
459.95	530.38
460.728	590.38
461.506	663.38
462.283	745.38
463.061	830.38
463.838	918.38
464.615	1028.38
465.393	1140.38
466.17	1271.38
466.947	1434.38
467.724	1569.38
468.501	1765.38
469.278	1937.38
470.055	2154.38
470.831	2383.38
471.608	2652.38
472.385	2905.38
473.161	3204.38
473.938	3545.38
474.714	3872.38
475.49	4256.38
476.266	4681.38
477.043	5122.38
477.819	5641.38
478.595	6175.38
479.371	6755.38
480.146	7401.38
480.922	8125.38
481.698	8819.38
482.473	9629.38
483.249	10496.38
484.024	11442.38
484.8	12399.38
485.575	13508.38
486.35	14676.38
487.126	15931.38
487.901	17159.38
488.676	18550.38
489.451	20042.38
490.225	21614.38
491	23206.38
491.775	24801.38
492.55	26570.38
493.324	28316.38
494.099	30008.38
494.873	31851.38
495.647	33653.38
496.422	35383.38
497.196	37179.38
497.97	38788.38
498.744	40197.38
499.518	41760.38
500.292	43130.38
501.066	44057.38
501.839	44829.38
502.613	45485.38
503.387	46046.38
504.16	46332.38
504.934	46319.38
505.707	46144.38
506.48	45634.38
507.253	45099.38
508.027	44262.38
508.8	43259.38
509.573	42150.38
510.346	41067.38
511.118	39961.38
511.891	38661.38
512.664	37165.38
513.437	35660.38
514.209	34272.38
514.982	32937.38
515.754	31562.38
516.526	30210.38
517.298	29010.38
518.071	27823.38
518.843	26693.38
519.615	25630.38
520.387	24628.38
521.159	23603.38
521.93	22674.38
522.702	21735.38
523.474	20799.38
524.245	19882.38
525.017	18981.38
525.788	18180.38
526.56	17367.38
527.331	16571.38
528.102	15765.38
528.873	14948.38
529.644	14248.38
530.415	13579.38
531.186	12928.38
531.957	12194.38
532.728	11567.38
533.498	10950.38
534.269	10352.38
535.039	9778.38
535.81	9279.38
536.58	8771.38
537.351	8294.38
538.121	7884.38
538.891	7464.38
539.661	7010.38
540.431	6656.38
541.201	6318.38
541.971	5978.38
542.741	5640.38
543.51	5389.38
544.28	5118.38
545.05	4890.38
545.819	4638.38
546.588	4475.38
547.358	4213.38
548.127	4036.38
548.896	3832.38
549.665	3596.38
550.434	3414.38
551.203	3226.38
551.972	3080.38
552.741	2901.38
553.51	2732.38
554.278	2570.38
555.047	2424.38
555.815	2325.38
556.584	2183.38
557.352	2047.38
558.121	1942.38
558.889	1836.38
559.657	1724.38
560.425	1645.38
561.193	1565.38
561.961	1477.38
562.729	1397.38
563.496	1314.38
564.264	1249.38
565.032	1182.38
565.799	1107.38
566.567	1063.38
567.334	996.38
568.101	939.38
568.869	892.38
569.636	833.38
570.403	789.38
571.17	752.38
571.937	710.38
572.704	668.38
573.471	631.38
574.237	592.38
575.004	552.38
575.771	527.38
576.537	505.38
577.303	463.38
578.07	444.38
578.836	412.38
579.602	394.38
580.368	378.38
581.134	363.38
581.9	335.38
582.666	323.38
583.432	314.38
584.198	298.38
584.964	270.38
585.729	265.38
586.495	252.38
587.26	242.38
588.025	226.38
588.791	205.38
589.556	202.38
590.321	189.38
591.086	184.38
591.851	174.38
592.616	161.38
593.381	154.38
594.146	150.38
594.911	146.38
595.675	135.38
596.44	135.38
597.204	126.38
597.969	116.38
598.733	110.38
599.497	110.38
600.261	105.38
601.025	96.38
601.79	97.38
602.553	89.38
603.317	88.38
604.081	84.38
604.845	78.38
605.609	83.38
606.372	75.38
607.136	69.38
607.899	67.38
608.662	65.38
609.426	65.38
610.189	59.38
610.952	58.38
611.715	57.38
612.478	57.38
613.241	55.38
614.004	51.38
614.767	50.38
615.529	47.38
616.292	47.38
617.055	38.38
617.817	43.38
618.579	41.38
619.342	41.38
620.104	42.38
620.866	37.38
621.628	36.38
622.39	36.38
623.152	33.38
623.914	35.38
624.676	36.38
625.438	32.38
626.199	33.38
626.961	26.38
627.722	27.38
628.484	27.38
629.245	29.38
630.006	25.38
630.768	25.38
631.529	24.38
632.29	22.38
633.051	24.38
633.812	22.38
634.573	23.38
635.333	23.38
636.094	22.38
636.855	23.38
637.615	19.38
638.376	20.38
639.136	17.38
639.896	18.38
640.657	18.38
641.417	18.38
642.177	18.38
642.937	18.38
643.697	18.38
644.457	16.38
645.216	17.38
645.976	16.38
646.736	14.38
647.495	17.38
648.255	13.38
649.014	16.38
649.774	12.38
650.533	13.38
651.292	12.38
652.051	12.38
652.81	14.38
653.569	14.38
654.328	12.38
655.087	11.38
655.846	12.38
656.604	12.38
657.363	9.38
658.121	10.38
658.88	10.38
659.638	10.38
660.397	12.38
661.155	10.38
661.913	10.38
662.671	10.38
663.429	12.38
664.187	11.38
664.945	9.38
665.703	5.38
666.46	9.38
667.218	10.38
667.976	8.38
668.733	10.38
669.49	9.38
670.248	9.38
671.005	9.38
671.762	7.38
672.519	8.38
673.276	9.38
674.033	8.38
674.79	8.38
675.547	8.38
676.304	7.38
677.06	5.38
677.817	9.38
678.574	9.38
679.33	7.38
680.086	6.38
680.843	8.38
681.599	8.38
682.355	8.38
683.111	4.38
683.867	4.38
684.623	7.38
685.379	7.38
686.135	9.38
686.89	8.38
687.646	4.38
688.402	5.38
689.157	8.38
689.912	6.38
690.668	4.38
691.423	6.38
692.178	8.38
692.933	6.38
693.688	7.38
694.443	7.38
695.198	6.38
695.953	7.38
696.708	9.38
697.462	6.38
698.217	8.38
698.972	5.38
699.726	8.38
700.48	6.38
701.235	8.38
701.989	5.38
702.743	7.38
703.497	7.38
704.251	5.38
705.005	7.38
705.759	8.38
706.513	7.38
707.266	8.38
708.02	7.38
708.774	4.38
709.527	6.38
710.28	6.38
711.034	4.38
711.787	8.38
712.54	8.38
713.293	9.38
714.046	6.38
714.799	7.38
715.552	6.38
716.305	7.38
717.058	8.38
717.81	8.38
718.563	7.38
719.315	8.38
720.068	9.38
720.82	8.38
721.573	6.38
722.325	8.38
723.077	7.38
723.829	8.38
724.581	8.38
725.333	6.38
726.085	9.38
726.836	8.38
727.588	7.38
728.34	8.38
729.091	5.38
729.843	7.38
730.594	8.38
731.346	8.38
732.097	6.38
732.848	7.38
733.599	6.38
734.35	9.38
735.101	7.38
735.852	8.38
736.603	8.38
737.354	9.38
738.104	7.38
738.855	7.38
739.605	8.38
740.356	10.38
741.106	10.38
741.856	8.38
742.607	10.38
743.357	9.38
744.107	11.38
744.857	10.38
745.607	11.38
746.357	10.38
747.106	8.38
747.856	9.38
748.606	9.38
749.355	12.38
750.105	11.38
750.854	9.38
751.603	10.38
752.353	9.38
753.102	12.38
753.851	12.38
754.6	10.38
755.349	12.38
756.098	10.38
756.847	11.38
757.595	10.38
758.344	12.38
759.093	12.38
759.841	11.38
760.589	10.38
761.338	9.38
762.086	10.38
762.834	12.38
763.582	12.38
764.331	10.38
765.079	13.38
765.826	10.38
766.574	12.38
767.322	13.38
768.07	13.38
768.817	10.38
769.565	14.38
770.312	14.38
771.06	12.38
771.807	14.38
772.554	13.38
773.302	13.38
774.049	13.38
774.796	16.38
775.543	14.38
776.29	16.38
777.036	14.38
777.783	14.38
778.53	17.38
779.276	12.38
780.023	13.38
780.769	14.38
781.516	16.38
782.262	14.38
783.008	13.38
783.754	15.38
784.5	14.38
785.246	14.38
785.992	14.38
786.738	13.38
787.484	17.38
788.23	16.38
788.975	16.38
789.721	13.38
790.466	16.38
791.212	10.38
791.957	13.38
792.702	14.38
793.447	12.38
794.193	14.38
794.938	13.38
795.683	12.38
796.427	13.38
797.172	12.38
797.917	12.38
798.662	12.38
799.406	11.38
800.151	14.38
800.895	10.38
801.64	14.38
802.384	11.38
803.128	11.38
803.872	11.38
804.616	11.38
805.36	11.38
806.104	6.38
806.848	9.38
807.592	11.38
808.336	10.38
809.079	9.38
809.823	10.38
810.566	8.38
811.31	7.38
812.053	8.38
812.796	6.38
813.539	9.38
814.283	6.38
815.026	7.38
815.769	9.38
816.511	7.38
817.254	6.38
817.997	8.38
818.74	6.38
819.482	5.38
820.225	6.38
820.967	7.38
821.71	7.38
822.452	5.38
823.194	7.38
823.936	7.38
824.678	5.38
825.42	5.38
826.162	6.38
826.904	6.38
827.646	6.38
828.388	6.38
829.129	4.38
829.871	6.38
830.612	4.38
831.354	6.38
832.095	6.38
832.836	4.38
833.577	4.38
834.319	2.38
835.06	3.38
835.801	3.38
836.542	4.38
837.282	3.38
838.023	5.38
838.764	6.38
839.504	5.38
840.245	5.38
840.985	5.38
841.726	4.38
842.466	6.38
843.206	2.38
843.946	4.38
844.687	4.38
845.427	3.38
846.166	5.38
846.906	3.38
847.646	5.38
848.386	5.38
849.125	6.38
849.865	5.38
850.605	4.38
851.344	4.38
852.083	3.38
852.823	3.38
853.562	3.38
854.301	3.38
855.04	5.38
855.779	2.38
856.518	2.38
857.257	2.38
857.995	3.38
858.734	2.38
859.473	1.38
860.211	5.38
860.95	4.38
861.688	3.38
862.426	2.38
863.165	2.38
863.903	3.38
864.641	3.38
865.379	4.38
866.117	1.38
866.855	4.38
867.593	1.38
868.33	0.38
869.068	1.38
869.806	1.38
870.543	1.38
871.28	3.38
872.018	2.38
872.755	0.38
873.492	0.38
874.229	2.38
874.967	2.38
875.703	2.38
876.44	1.38
877.177	2.38
877.914	2.38
878.651	0.38
879.387	0.38
880.124	1.38
880.86	2.38
881.597	1.38
882.333	3.38
883.069	2.38
883.806	1.38
884.542	0.38
885.278	1.38
886.014	0.38
886.749	0.38
887.485	-1.62
888.221	2.38
888.957	1.38
889.692	-1.62
890.428	0.38
891.163	2.38
891.899	-0.62
892.634	-1.62
893.369	1.38
894.104	2.38
894.839	-0.62
895.574	0.38
896.309	-1.62
897.044	2.38
897.779	1.38
898.514	-0.62
899.248	0.38
899.983	-0.62
900.717	0.38
901.452	0.38
902.186	0.38
902.92	-0.62
903.654	0.38
904.389	0.38
905.123	0.38
905.857	1.38
906.59	1.38
907.324	0.38
908.058	2.38
908.792	-2.62
909.525	0.38
910.259	-1.62
910.992	2.38
911.726	-1.62
912.459	1.38
913.192	-0.62
913.925	0.38
914.658	2.38
915.391	0.38
916.124	-0.62
916.857	2.38
917.59	0.38
918.323	1.38
919.055	0.38
919.788	1.38
920.521	-1.62
921.253	0.38
921.985	0.38
922.718	-0.62
923.45	-0.62
924.182	-2.62
924.914	0.38
925.646	0.38
926.378	-0.62
927.11	-0.62
927.841	0.38
928.573	0.38
929.305	-0.62
930.036	0.38
930.768	-1.62
931.499	-0.62
932.23	0.38
932.962	-1.62
933.693	-0.62
934.424	1.38
935.155	0.38
935.886	-0.62
936.617	0.38
937.348	-1.62
938.078	0.38
938.809	-1.62
939.54	-0.62
940.27	-1.62
941.001	1.38
941.731	0.38
942.461	0.38
943.191	1.38
943.922	0.38
944.652	1.38
945.382	0.38
946.112	0.38
946.841	-0.62
947.571	0.38
948.301	-2.62
949.031	-0.62
949.76	0.38
950.49	0.38
951.219	-0.62
951.948	-0.62
952.678	-0.62
953.407	2.38
954.136	1.38
954.865	0.38
955.594	-1.62
956.323	1.38
957.052	-2.62
957.78	1.38
958.509	0.38
959.238	2.38
959.966	1.38
960.695	-1.62
961.423	0.38
962.151	-2.62
962.88	0.38
963.608	-0.62
964.336	-1.62
965.064	0.38
965.792	-2.62
966.52	-0.62
967.247	0.38
967.975	-1.62
968.703	2.38
969.43	1.38
970.158	-1.62
970.885	-1.62
971.613	0.38
972.34	-1.62
973.067	-0.62
973.794	0.38
974.521	-0.62
975.248	-0.62
975.975	0.38
976.702	0.38
977.429	-0.62
978.156	-1.62
978.882	0.38
979.609	1.38
980.335	1.38
981.062	-1.62
981.788	0.38
982.514	0.38
983.24	-0.62
983.967	-0.62
984.693	0.38
985.419	-2.62
986.144	0.38
986.87	-2.62
987.596	0.38
988.322	0.38
989.047	-0.62
989.773	1.38
990.498	0.38
991.224	0.38
991.949	-1.62
992.674	1.38
993.399	-1.62
994.124	1.38
994.849	1.38
995.574	-1.62
996.299	0.38
997.024	0.38
997.749	-0.62
998.473	1.38
999.198	0.38
999.922	0.38
1000.647	-0.62
1001.371	4.38
1002.095	0.38
1002.82	-2.62
1003.544	-2.62
1004.268	5.38
1004.992	2.38
1005.716	4.38
1006.439	4.38
1007.163	5.38
1007.887	7.38
1008.611	1.38
1009.334	-2.62
1010.058	-1.62
1010.781	2.38
1011.504	-0.62
1012.228	0.38
1012.951	0.38
1013.674	-0.62
1014.397	-0.62
1015.12	1.38
