节点500_705_QEPB04081__203__20-48-58-481.txt的数据

Date: Wed Nov 12 20:48:58 CST 2025
User: PC
Spectrometer: QEPB0408
触发模式: 0
积分时间 (秒): 1.000000E-2
Scans to average: 1
启用暗噪声校正: true
启用非线性校正: false
滑动平均宽度: 0
X轴模式: Wavelengths
Number of Pixels in Spectrum: 1044
>>>>>Begin Spectral Data<<<<<
220.843	7.88
221.644	3.88
222.444	4.88
223.244	5.88
224.045	6.88
224.845	6.88
225.645	5.88
226.445	4.88
227.245	4.88
228.045	6.88
228.845	9.88
229.645	7.88
230.444	9.88
231.244	8.88
232.043	9.88
232.843	8.88
233.642	8.88
234.442	7.88
235.241	11.88
236.04	11.88
236.839	8.88
237.638	10.88
238.437	12.88
239.236	10.88
240.035	10.88
240.833	9.88
241.632	13.88
242.43	12.88
243.229	11.88
244.027	12.88
244.826	14.88
245.624	12.88
246.422	13.88
247.22	15.88
248.018	14.88
248.816	14.88
249.614	15.88
250.412	16.88
251.21	15.88
252.007	17.88
252.805	18.88
253.602	16.88
254.4	20.88
255.197	18.88
255.994	18.88
256.791	21.88
257.589	19.88
258.386	19.88
259.183	23.88
259.979	21.88
260.776	23.88
261.573	22.88
262.37	24.88
263.166	21.88
263.963	26.88
264.759	28.88
265.556	25.88
266.352	26.88
267.148	28.88
267.944	28.88
268.74	28.88
269.536	31.88
270.332	31.88
271.128	29.88
271.924	36.88
272.719	32.88
273.515	36.88
274.311	35.88
275.106	34.88
275.901	34.88
276.697	36.88
277.492	38.88
278.287	34.88
279.082	31.88
279.877	36.88
280.672	33.88
281.467	35.88
282.262	35.88
283.056	33.88
283.851	33.88
284.646	35.88
285.44	36.88
286.234	31.88
287.029	35.88
287.823	35.88
288.617	30.88
289.411	34.88
290.205	32.88
290.999	34.88
291.793	30.88
292.587	30.88
293.381	32.88
294.174	26.88
294.968	29.88
295.761	26.88
296.555	30.88
297.348	24.88
298.141	27.88
298.935	29.88
299.728	25.88
300.521	27.88
301.314	24.88
302.107	22.88
302.899	20.88
303.692	22.88
304.485	20.88
305.277	20.88
306.07	22.88
306.862	22.88
307.655	23.88
308.447	20.88
309.239	17.88
310.031	21.88
310.823	21.88
311.615	16.88
312.407	17.88
313.199	19.88
313.991	18.88
314.783	18.88
315.574	18.88
316.366	16.88
317.157	14.88
317.949	13.88
318.74	14.88
319.531	15.88
320.322	14.88
321.113	15.88
321.904	14.88
322.695	12.88
323.486	12.88
324.277	12.88
325.068	17.88
325.858	12.88
326.649	14.88
327.439	11.88
328.23	12.88
329.02	13.88
329.81	11.88
330.6	13.88
331.391	12.88
332.181	12.88
332.971	13.88
333.76	10.88
334.55	13.88
335.34	10.88
336.13	10.88
336.919	11.88
337.709	11.88
338.498	11.88
339.287	11.88
340.077	7.88
340.866	11.88
341.655	11.88
342.444	9.88
343.233	12.88
344.022	10.88
344.811	7.88
345.6	11.88
346.388	12.88
347.177	11.88
347.965	10.88
348.754	12.88
349.542	13.88
350.33	10.88
351.119	12.88
351.907	11.88
352.695	10.88
353.483	12.88
354.271	10.88
355.059	10.88
355.846	11.88
356.634	8.88
357.422	11.88
358.209	10.88
358.997	12.88
359.784	9.88
360.571	8.88
361.359	9.88
362.146	7.88
362.933	8.88
363.72	7.88
364.507	11.88
365.294	9.88
366.081	9.88
366.867	10.88
367.654	10.88
368.44	9.88
369.227	9.88
370.013	12.88
370.8	8.88
371.586	7.88
372.372	12.88
373.158	8.88
373.944	8.88
374.73	9.88
375.516	6.88
376.302	9.88
377.088	10.88
377.873	9.88
378.659	10.88
379.445	8.88
380.23	10.88
381.015	9.88
381.801	10.88
382.586	8.88
383.371	8.88
384.156	10.88
384.941	11.88
385.726	9.88
386.511	12.88
387.296	10.88
388.08	8.88
388.865	9.88
389.649	10.88
390.434	11.88
391.218	9.88
392.003	10.88
392.787	13.88
393.571	10.88
394.355	11.88
395.139	13.88
395.923	12.88
396.707	10.88
397.491	13.88
398.274	13.88
399.058	13.88
399.842	15.88
400.625	12.88
401.408	14.88
402.192	11.88
402.975	14.88
403.758	14.88
404.541	15.88
405.324	15.88
406.107	14.88
406.89	12.88
407.673	17.88
408.456	17.88
409.238	17.88
410.021	16.88
410.803	18.88
411.586	18.88
412.368	14.88
413.151	18.88
413.933	15.88
414.715	15.88
415.497	16.88
416.279	18.88
417.061	21.88
417.843	18.88
418.624	22.88
419.406	18.88
420.188	20.88
420.969	23.88
421.751	22.88
422.532	22.88
423.313	20.88
424.095	24.88
424.876	21.88
425.657	24.88
426.438	25.88
427.219	24.88
428	27.88
428.78	28.88
429.561	26.88
430.342	29.88
431.122	30.88
431.903	33.88
432.683	35.88
433.464	34.88
434.244	37.88
435.024	37.88
435.804	38.88
436.584	40.88
437.364	42.88
438.144	46.88
438.924	50.88
439.704	53.88
440.483	58.88
441.263	59.88
442.042	63.88
442.822	69.88
443.601	72.88
444.38	76.88
445.16	83.88
445.939	92.88
446.718	97.88
447.497	108.88
448.276	119.88
449.054	128.88
449.833	143.88
450.612	157.88
451.391	173.88
452.169	193.88
452.948	212.88
453.726	231.88
454.504	256.88
455.282	294.88
456.061	320.88
456.839	353.88
457.617	398.88
458.395	453.88
459.172	485.88
459.95	547.88
460.728	614.88
461.506	693.88
462.283	771.88
463.061	852.88
463.838	959.88
464.615	1071.88
465.393	1203.88
466.17	1329.88
466.947	1467.88
467.724	1629.88
468.501	1813.88
469.278	2042.88
470.055	2246.88
470.831	2488.88
471.608	2762.88
472.385	3041.88
473.161	3347.88
473.938	3686.88
474.714	4082.88
475.49	4473.88
476.266	4910.88
477.043	5399.88
477.819	5912.88
478.595	6462.88
479.371	7087.88
480.146	7764.88
480.922	8492.88
481.698	9295.88
482.473	10090.88
483.249	11031.88
484.024	11992.88
484.8	13035.88
485.575	14164.88
486.35	15419.88
487.126	16722.88
487.901	18110.88
488.676	19526.88
489.451	21134.88
490.225	22766.88
491	24371.88
491.775	26158.88
492.55	27954.88
493.324	29785.88
494.099	31712.88
494.873	33578.88
495.647	35415.88
496.422	37248.88
497.196	39161.88
497.97	40699.88
498.744	42290.88
499.518	43914.88
500.292	45282.88
501.066	46243.88
501.839	47112.88
502.613	47888.88
503.387	48209.88
504.16	48640.88
504.934	48535.88
505.707	48384.88
506.48	47857.88
507.253	47199.88
508.027	46231.88
508.8	45250.88
509.573	44110.88
510.346	42859.88
511.118	41705.88
511.891	40406.88
512.664	38697.88
513.437	37136.88
514.209	35768.88
514.982	34372.88
515.754	32903.88
516.526	31493.88
517.298	30251.88
518.071	28967.88
518.843	27813.88
519.615	26748.88
520.387	25636.88
521.159	24658.88
521.93	23608.88
522.702	22674.88
523.474	21726.88
524.245	20679.88
525.017	19829.88
525.788	18931.88
526.56	18103.88
527.331	17318.88
528.102	16395.88
528.873	15582.88
529.644	14783.88
530.415	14113.88
531.186	13400.88
531.957	12694.88
532.728	12016.88
533.498	11393.88
534.269	10808.88
535.039	10203.88
535.81	9692.88
536.58	9118.88
537.351	8622.88
538.121	8181.88
538.891	7725.88
539.661	7312.88
540.431	6907.88
541.201	6565.88
541.971	6214.88
542.741	5893.88
543.51	5593.88
544.28	5323.88
545.05	5079.88
545.819	4821.88
546.588	4616.88
547.358	4391.88
548.127	4186.88
548.896	3940.88
549.665	3718.88
550.434	3521.88
551.203	3342.88
551.972	3191.88
552.741	3026.88
553.51	2853.88
554.278	2690.88
555.047	2520.88
555.815	2406.88
556.584	2260.88
557.352	2138.88
558.121	2036.88
558.889	1888.88
559.657	1792.88
560.425	1711.88
561.193	1597.88
561.961	1517.88
562.729	1447.88
563.496	1358.88
564.264	1298.88
565.032	1211.88
565.799	1150.88
566.567	1085.88
567.334	1035.88
568.101	977.88
568.869	920.88
569.636	857.88
570.403	834.88
571.17	786.88
571.937	734.88
572.704	689.88
573.471	647.88
574.237	611.88
575.004	571.88
575.771	540.88
576.537	518.88
577.303	486.88
578.07	466.88
578.836	426.88
579.602	405.88
580.368	387.88
581.134	371.88
581.9	353.88
582.666	331.88
583.432	322.88
584.198	302.88
584.964	291.88
585.729	266.88
586.495	260.88
587.26	243.88
588.025	234.88
588.791	220.88
589.556	205.88
590.321	198.88
591.086	187.88
591.851	184.88
592.616	170.88
593.381	160.88
594.146	154.88
594.911	144.88
595.675	142.88
596.44	139.88
597.204	128.88
597.969	126.88
598.733	120.88
599.497	110.88
600.261	105.88
601.025	102.88
601.79	101.88
602.553	94.88
603.317	91.88
604.081	87.88
604.845	89.88
605.609	80.88
606.372	79.88
607.136	78.88
607.899	71.88
608.662	68.88
609.426	63.88
610.189	65.88
610.952	60.88
611.715	61.88
612.478	57.88
613.241	56.88
614.004	50.88
614.767	51.88
615.529	48.88
616.292	45.88
617.055	48.88
617.817	45.88
618.579	41.88
619.342	43.88
620.104	40.88
620.866	40.88
621.628	35.88
622.39	35.88
623.152	35.88
623.914	36.88
624.676	33.88
625.438	34.88
626.199	33.88
626.961	30.88
627.722	28.88
628.484	28.88
629.245	29.88
630.006	30.88
630.768	28.88
631.529	25.88
632.29	27.88
633.051	23.88
633.812	20.88
634.573	23.88
635.333	23.88
636.094	20.88
636.855	21.88
637.615	20.88
638.376	20.88
639.136	21.88
639.896	18.88
640.657	18.88
641.417	18.88
642.177	20.88
642.937	18.88
643.697	13.88
644.457	17.88
645.216	14.88
645.976	17.88
646.736	17.88
647.495	16.88
648.255	12.88
649.014	14.88
649.774	15.88
650.533	12.88
651.292	14.88
652.051	15.88
652.81	13.88
653.569	13.88
654.328	14.88
655.087	15.88
655.846	12.88
656.604	10.88
657.363	12.88
658.121	14.88
658.88	14.88
659.638	9.88
660.397	8.88
661.155	6.88
661.913	11.88
662.671	11.88
663.429	10.88
664.187	13.88
664.945	8.88
665.703	10.88
666.46	10.88
667.218	6.88
667.976	10.88
668.733	8.88
669.49	10.88
670.248	8.88
671.005	8.88
671.762	10.88
672.519	9.88
673.276	11.88
674.033	7.88
674.79	4.88
675.547	9.88
676.304	8.88
677.06	7.88
677.817	8.88
678.574	8.88
679.33	8.88
680.086	8.88
680.843	8.88
681.599	7.88
682.355	12.88
683.111	8.88
683.867	6.88
684.623	6.88
685.379	7.88
686.135	6.88
686.89	7.88
687.646	8.88
688.402	6.88
689.157	7.88
689.912	8.88
690.668	6.88
691.423	8.88
692.178	7.88
692.933	7.88
693.688	7.88
694.443	7.88
695.198	7.88
695.953	5.88
696.708	7.88
697.462	10.88
698.217	6.88
698.972	7.88
699.726	6.88
700.48	7.88
701.235	8.88
701.989	6.88
702.743	7.88
703.497	6.88
704.251	9.88
705.005	7.88
705.759	7.88
706.513	7.88
707.266	6.88
708.02	7.88
708.774	5.88
709.527	8.88
710.28	5.88
711.034	6.88
711.787	11.88
712.54	7.88
713.293	7.88
714.046	5.88
714.799	7.88
715.552	6.88
716.305	6.88
717.058	7.88
717.81	9.88
718.563	7.88
719.315	8.88
720.068	5.88
720.82	10.88
721.573	7.88
722.325	5.88
723.077	8.88
723.829	8.88
724.581	9.88
725.333	9.88
726.085	8.88
726.836	7.88
727.588	8.88
728.34	8.88
729.091	8.88
729.843	7.88
730.594	9.88
731.346	10.88
732.097	7.88
732.848	9.88
733.599	10.88
734.35	10.88
735.101	9.88
735.852	8.88
736.603	10.88
737.354	9.88
738.104	12.88
738.855	8.88
739.605	6.88
740.356	9.88
741.106	9.88
741.856	9.88
742.607	10.88
743.357	11.88
744.107	7.88
744.857	8.88
745.607	12.88
746.357	9.88
747.106	12.88
747.856	9.88
748.606	10.88
749.355	10.88
750.105	12.88
750.854	13.88
751.603	11.88
752.353	11.88
753.102	11.88
753.851	11.88
754.6	8.88
755.349	11.88
756.098	11.88
756.847	14.88
757.595	15.88
758.344	9.88
759.093	11.88
759.841	12.88
760.589	11.88
761.338	13.88
762.086	12.88
762.834	12.88
763.582	12.88
764.331	12.88
765.079	14.88
765.826	13.88
766.574	12.88
767.322	14.88
768.07	15.88
768.817	15.88
769.565	15.88
770.312	13.88
771.06	17.88
771.807	16.88
772.554	16.88
773.302	12.88
774.049	18.88
774.796	16.88
775.543	16.88
776.29	15.88
777.036	13.88
777.783	17.88
778.53	15.88
779.276	16.88
780.023	16.88
780.769	15.88
781.516	15.88
782.262	16.88
783.008	15.88
783.754	17.88
784.5	16.88
785.246	15.88
785.992	16.88
786.738	15.88
787.484	15.88
788.23	13.88
788.975	14.88
789.721	14.88
790.466	16.88
791.212	15.88
791.957	15.88
792.702	15.88
793.447	14.88
794.193	15.88
794.938	13.88
795.683	12.88
796.427	12.88
797.172	14.88
797.917	15.88
798.662	12.88
799.406	14.88
800.151	13.88
800.895	11.88
801.64	13.88
802.384	12.88
803.128	10.88
803.872	13.88
804.616	10.88
805.36	12.88
806.104	9.88
806.848	10.88
807.592	7.88
808.336	7.88
809.079	6.88
809.823	9.88
810.566	7.88
811.31	12.88
812.053	5.88
812.796	10.88
813.539	6.88
814.283	5.88
815.026	7.88
815.769	8.88
816.511	7.88
817.254	9.88
817.997	7.88
818.74	6.88
819.482	8.88
820.225	7.88
820.967	5.88
821.71	6.88
822.452	6.88
823.194	5.88
823.936	6.88
824.678	6.88
825.42	7.88
826.162	3.88
826.904	7.88
827.646	6.88
828.388	3.88
829.129	8.88
829.871	4.88
830.612	6.88
831.354	6.88
832.095	4.88
832.836	6.88
833.577	5.88
834.319	5.88
835.06	5.88
835.801	5.88
836.542	3.88
837.282	5.88
838.023	4.88
838.764	4.88
839.504	5.88
840.245	4.88
840.985	7.88
841.726	3.88
842.466	4.88
843.206	7.88
843.946	5.88
844.687	5.88
845.427	4.88
846.166	6.88
846.906	4.88
847.646	2.88
848.386	5.88
849.125	6.88
849.865	4.88
850.605	2.88
851.344	2.88
852.083	5.88
852.823	5.88
853.562	4.88
854.301	4.88
855.04	5.88
855.779	2.88
856.518	1.88
857.257	3.88
857.995	2.88
858.734	4.88
859.473	3.88
860.211	0.88
860.95	2.88
861.688	4.88
862.426	2.88
863.165	4.88
863.903	2.88
864.641	6.88
865.379	1.88
866.117	4.88
866.855	2.88
867.593	2.88
868.33	2.88
869.068	2.88
869.806	2.88
870.543	2.88
871.28	4.88
872.018	1.88
872.755	0.88
873.492	1.88
874.229	0.88
874.967	1.88
875.703	0.88
876.44	1.88
877.177	2.88
877.914	1.88
878.651	0.88
879.387	0.88
880.124	0.88
880.86	2.88
881.597	1.88
882.333	2.88
883.069	0.88
883.806	0.88
884.542	-0.12
885.278	2.88
886.014	2.88
886.749	-0.12
887.485	2.88
888.221	0.88
888.957	1.88
889.692	1.88
890.428	1.88
891.163	0.88
891.899	-0.12
892.634	2.88
893.369	0.88
894.104	0.88
894.839	0.88
895.574	-0.12
896.309	1.88
897.044	0.88
897.779	-0.12
898.514	2.88
899.248	1.88
899.983	0.88
900.717	1.88
901.452	0.88
902.186	0.88
902.92	0.88
903.654	0.88
904.389	-0.12
905.123	1.88
905.857	0.88
906.59	0.88
907.324	-1.12
908.058	-0.12
908.792	-0.12
909.525	-0.12
910.259	0.88
910.992	1.88
911.726	1.88
912.459	1.88
913.192	-1.12
913.925	-0.12
914.658	0.88
915.391	-2.12
916.124	0.88
916.857	0.88
917.59	-0.12
918.323	-1.12
919.055	0.88
919.788	0.88
920.521	1.88
921.253	1.88
921.985	0.88
922.718	0.88
923.45	0.88
924.182	0.88
924.914	-0.12
925.646	1.88
926.378	2.88
927.11	-0.12
927.841	-0.12
928.573	-2.12
929.305	-0.12
930.036	-1.12
930.768	0.88
931.499	-1.12
932.23	0.88
932.962	-1.12
933.693	-1.12
934.424	-2.12
935.155	-0.12
935.886	-0.12
936.617	-1.12
937.348	0.88
938.078	-1.12
938.809	1.88
939.54	-0.12
940.27	0.88
941.001	0.88
941.731	-0.12
942.461	-1.12
943.191	-0.12
943.922	2.88
944.652	0.88
945.382	0.88
946.112	-1.12
946.841	0.88
947.571	2.88
948.301	1.88
949.031	0.88
949.76	0.88
950.49	-0.12
951.219	-1.12
951.948	0.88
952.678	-0.12
953.407	-0.12
954.136	2.88
954.865	0.88
955.594	2.88
956.323	0.88
957.052	-1.12
957.78	-1.12
958.509	0.88
959.238	1.88
959.966	-0.12
960.695	-0.12
961.423	-1.12
962.151	-0.12
962.88	-1.12
963.608	1.88
964.336	-0.12
965.064	-0.12
965.792	-0.12
966.52	0.88
967.247	0.88
967.975	-1.12
968.703	-1.12
969.43	-1.12
970.158	0.88
970.885	0.88
971.613	-0.12
972.34	1.88
973.067	0.88
973.794	1.88
974.521	0.88
975.248	1.88
975.975	0.88
976.702	-0.12
977.429	-0.12
978.156	-0.12
978.882	0.88
979.609	-1.12
980.335	0.88
981.062	1.88
981.788	-1.12
982.514	-0.12
983.24	1.88
983.967	-1.12
984.693	2.88
985.419	1.88
986.144	-1.12
986.87	-0.12
987.596	-0.12
988.322	0.88
989.047	-0.12
989.773	-0.12
990.498	-1.12
991.224	-0.12
991.949	1.88
992.674	0.88
993.399	0.88
994.124	-0.12
994.849	-1.12
995.574	1.88
996.299	-1.12
997.024	-1.12
997.749	1.88
998.473	-0.12
999.198	-0.12
999.922	-0.12
1000.647	0.88
1001.371	1.88
1002.095	0.88
1002.82	0.88
1003.544	-2.12
1004.268	2.88
1004.992	4.88
1005.716	4.88
1006.439	5.88
1007.163	5.88
1007.887	7.88
1008.611	-1.12
1009.334	2.88
1010.058	-0.12
1010.781	-0.12
1011.504	0.88
1012.228	-1.12
1012.951	-0.12
1013.674	-0.12
1014.397	-0.12
1015.12	-1.12
