节点500_705_QEPB04081__522__20-53-18-752.txt的数据

Date: Wed Nov 12 20:53:18 CST 2025
User: PC
Spectrometer: QEPB0408
触发模式: 0
积分时间 (秒): 1.000000E-2
Scans to average: 1
启用暗噪声校正: true
启用非线性校正: false
滑动平均宽度: 0
X轴模式: Wavelengths
Number of Pixels in Spectrum: 1044
>>>>>Begin Spectral Data<<<<<
220.843	4.75
221.644	6.75
222.444	5.75
223.244	8.75
224.045	4.75
224.845	4.75
225.645	7.75
226.445	3.75
227.245	4.75
228.045	9.75
228.845	7.75
229.645	6.75
230.444	8.75
231.244	7.75
232.043	10.75
232.843	10.75
233.642	9.75
234.442	10.75
235.241	5.75
236.04	8.75
236.839	10.75
237.638	10.75
238.437	12.75
239.236	9.75
240.035	9.75
240.833	14.75
241.632	11.75
242.43	12.75
243.229	11.75
244.027	12.75
244.826	9.75
245.624	11.75
246.422	13.75
247.22	13.75
248.018	12.75
248.816	16.75
249.614	12.75
250.412	12.75
251.21	16.75
252.007	13.75
252.805	16.75
253.602	15.75
254.4	17.75
255.197	17.75
255.994	20.75
256.791	20.75
257.589	16.75
258.386	17.75
259.183	20.75
259.979	22.75
260.776	22.75
261.573	23.75
262.37	22.75
263.166	23.75
263.963	22.75
264.759	22.75
265.556	23.75
266.352	26.75
267.148	25.75
267.944	24.75
268.74	25.75
269.536	27.75
270.332	25.75
271.128	27.75
271.924	28.75
272.719	29.75
273.515	30.75
274.311	30.75
275.106	29.75
275.901	27.75
276.697	31.75
277.492	33.75
278.287	32.75
279.082	29.75
279.877	31.75
280.672	33.75
281.467	33.75
282.262	32.75
283.056	31.75
283.851	36.75
284.646	32.75
285.44	27.75
286.234	30.75
287.029	33.75
287.823	32.75
288.617	33.75
289.411	31.75
290.205	28.75
290.999	30.75
291.793	31.75
292.587	29.75
293.381	32.75
294.174	30.75
294.968	27.75
295.761	26.75
296.555	27.75
297.348	27.75
298.141	24.75
298.935	28.75
299.728	25.75
300.521	25.75
301.314	19.75
302.107	22.75
302.899	21.75
303.692	24.75
304.485	22.75
305.277	23.75
306.07	19.75
306.862	20.75
307.655	21.75
308.447	21.75
309.239	19.75
310.031	18.75
310.823	22.75
311.615	14.75
312.407	18.75
313.199	15.75
313.991	15.75
314.783	16.75
315.574	15.75
316.366	14.75
317.157	14.75
317.949	14.75
318.74	14.75
319.531	14.75
320.322	13.75
321.113	12.75
321.904	12.75
322.695	14.75
323.486	13.75
324.277	12.75
325.068	10.75
325.858	11.75
326.649	11.75
327.439	10.75
328.23	13.75
329.02	11.75
329.81	11.75
330.6	13.75
331.391	11.75
332.181	10.75
332.971	9.75
333.76	12.75
334.55	11.75
335.34	12.75
336.13	13.75
336.919	11.75
337.709	12.75
338.498	10.75
339.287	12.75
340.077	10.75
340.866	10.75
341.655	12.75
342.444	9.75
343.233	10.75
344.022	10.75
344.811	12.75
345.6	11.75
346.388	9.75
347.177	10.75
347.965	11.75
348.754	12.75
349.542	12.75
350.33	11.75
351.119	9.75
351.907	9.75
352.695	10.75
353.483	10.75
354.271	8.75
355.059	9.75
355.846	11.75
356.634	10.75
357.422	10.75
358.209	10.75
358.997	8.75
359.784	9.75
360.571	8.75
361.359	8.75
362.146	10.75
362.933	7.75
363.72	9.75
364.507	8.75
365.294	9.75
366.081	8.75
366.867	8.75
367.654	7.75
368.44	7.75
369.227	9.75
370.013	9.75
370.8	9.75
371.586	9.75
372.372	11.75
373.158	9.75
373.944	8.75
374.73	9.75
375.516	9.75
376.302	10.75
377.088	9.75
377.873	8.75
378.659	10.75
379.445	9.75
380.23	10.75
381.015	8.75
381.801	6.75
382.586	10.75
383.371	9.75
384.156	10.75
384.941	10.75
385.726	12.75
386.511	10.75
387.296	9.75
388.08	9.75
388.865	9.75
389.649	10.75
390.434	9.75
391.218	11.75
392.003	12.75
392.787	10.75
393.571	10.75
394.355	11.75
395.139	12.75
395.923	13.75
396.707	14.75
397.491	11.75
398.274	13.75
399.058	12.75
399.842	12.75
400.625	12.75
401.408	11.75
402.192	10.75
402.975	12.75
403.758	12.75
404.541	12.75
405.324	14.75
406.107	16.75
406.89	14.75
407.673	12.75
408.456	10.75
409.238	14.75
410.021	14.75
410.803	14.75
411.586	17.75
412.368	18.75
413.151	13.75
413.933	19.75
414.715	17.75
415.497	18.75
416.279	18.75
417.061	17.75
417.843	18.75
418.624	18.75
419.406	19.75
420.188	18.75
420.969	19.75
421.751	20.75
422.532	20.75
423.313	22.75
424.095	21.75
424.876	25.75
425.657	22.75
426.438	26.75
427.219	24.75
428	25.75
428.78	27.75
429.561	26.75
430.342	28.75
431.122	30.75
431.903	31.75
432.683	32.75
433.464	34.75
434.244	35.75
435.024	38.75
435.804	38.75
436.584	43.75
437.364	46.75
438.144	46.75
438.924	52.75
439.704	51.75
440.483	57.75
441.263	62.75
442.042	69.75
442.822	68.75
443.601	76.75
444.38	81.75
445.16	85.75
445.939	97.75
446.718	108.75
447.497	115.75
448.276	126.75
449.054	137.75
449.833	155.75
450.612	168.75
451.391	183.75
452.169	208.75
452.948	231.75
453.726	255.75
454.504	277.75
455.282	313.75
456.061	344.75
456.839	382.75
457.617	431.75
458.395	481.75
459.172	531.75
459.95	592.75
460.728	664.75
461.506	732.75
462.283	822.75
463.061	923.75
463.838	1010.75
464.615	1121.75
465.393	1255.75
466.17	1370.75
466.947	1516.75
467.724	1702.75
468.501	1867.75
469.278	2050.75
470.055	2288.75
470.831	2499.75
471.608	2733.75
472.385	3035.75
473.161	3328.75
473.938	3641.75
474.714	3960.75
475.49	4351.75
476.266	4757.75
477.043	5165.75
477.819	5649.75
478.595	6154.75
479.371	6694.75
480.146	7291.75
480.922	7908.75
481.698	8540.75
482.473	9264.75
483.249	10099.75
484.024	10894.75
484.8	11788.75
485.575	12740.75
486.35	13745.75
487.126	14895.75
487.901	16008.75
488.676	17158.75
489.451	18528.75
490.225	19846.75
491	21239.75
491.775	22689.75
492.55	24250.75
493.324	25791.75
494.099	27404.75
494.873	29074.75
495.647	30661.75
496.422	32273.75
497.196	33952.75
497.97	35476.75
498.744	37052.75
499.518	38622.75
500.292	39958.75
501.066	40968.75
501.839	41970.75
502.613	42818.75
503.387	43562.75
504.16	44197.75
504.934	44483.75
505.707	44690.75
506.48	44561.75
507.253	44250.75
508.027	43962.75
508.8	43173.75
509.573	42424.75
510.346	41639.75
511.118	40762.75
511.891	39624.75
512.664	38391.75
513.437	36974.75
514.209	35773.75
514.982	34513.75
515.754	33245.75
516.526	31907.75
517.298	30670.75
518.071	29482.75
518.843	28379.75
519.615	27193.75
520.387	26146.75
521.159	25147.75
521.93	24094.75
522.702	23039.75
523.474	22174.75
524.245	21246.75
525.017	20402.75
525.788	19500.75
526.56	18728.75
527.331	17940.75
528.102	17046.75
528.873	16224.75
529.644	15424.75
530.415	14759.75
531.186	14008.75
531.957	13329.75
532.728	12684.75
533.498	12100.75
534.269	11465.75
535.039	10851.75
535.81	10273.75
536.58	9687.75
537.351	9199.75
538.121	8712.75
538.891	8259.75
539.661	7790.75
540.431	7372.75
541.201	6997.75
541.971	6632.75
542.741	6298.75
543.51	5958.75
544.28	5693.75
545.05	5430.75
545.819	5174.75
546.588	4933.75
547.358	4703.75
548.127	4478.75
548.896	4235.75
549.665	4015.75
550.434	3835.75
551.203	3622.75
551.972	3447.75
552.741	3255.75
553.51	3066.75
554.278	2906.75
555.047	2753.75
555.815	2601.75
556.584	2446.75
557.352	2332.75
558.121	2183.75
558.889	2067.75
559.657	1966.75
560.425	1856.75
561.193	1758.75
561.961	1662.75
562.729	1589.75
563.496	1479.75
564.264	1413.75
565.032	1330.75
565.799	1246.75
566.567	1190.75
567.334	1122.75
568.101	1058.75
568.869	1010.75
569.636	957.75
570.403	901.75
571.17	842.75
571.937	802.75
572.704	762.75
573.471	714.75
574.237	668.75
575.004	634.75
575.771	593.75
576.537	564.75
577.303	536.75
578.07	513.75
578.836	473.75
579.602	452.75
580.368	426.75
581.134	411.75
581.9	391.75
582.666	361.75
583.432	348.75
584.198	332.75
584.964	318.75
585.729	296.75
586.495	275.75
587.26	258.75
588.025	251.75
588.791	243.75
589.556	230.75
590.321	214.75
591.086	206.75
591.851	194.75
592.616	179.75
593.381	177.75
594.146	172.75
594.911	165.75
595.675	154.75
596.44	147.75
597.204	142.75
597.969	140.75
598.733	124.75
599.497	121.75
600.261	122.75
601.025	114.75
601.79	111.75
602.553	103.75
603.317	98.75
604.081	93.75
604.845	93.75
605.609	89.75
606.372	78.75
607.136	80.75
607.899	77.75
608.662	73.75
609.426	72.75
610.189	70.75
610.952	63.75
611.715	64.75
612.478	62.75
613.241	57.75
614.004	58.75
614.767	53.75
615.529	52.75
616.292	53.75
617.055	48.75
617.817	45.75
618.579	43.75
619.342	44.75
620.104	42.75
620.866	40.75
621.628	40.75
622.39	39.75
623.152	39.75
623.914	37.75
624.676	35.75
625.438	34.75
626.199	36.75
626.961	34.75
627.722	30.75
628.484	27.75
629.245	28.75
630.006	27.75
630.768	28.75
631.529	28.75
632.29	25.75
633.051	25.75
633.812	24.75
634.573	27.75
635.333	21.75
636.094	27.75
636.855	20.75
637.615	22.75
638.376	21.75
639.136	18.75
639.896	20.75
640.657	18.75
641.417	20.75
642.177	18.75
642.937	17.75
643.697	19.75
644.457	14.75
645.216	19.75
645.976	17.75
646.736	15.75
647.495	14.75
648.255	13.75
649.014	15.75
649.774	11.75
650.533	14.75
651.292	13.75
652.051	12.75
652.81	15.75
653.569	12.75
654.328	14.75
655.087	11.75
655.846	10.75
656.604	14.75
657.363	11.75
658.121	9.75
658.88	11.75
659.638	9.75
660.397	11.75
661.155	11.75
661.913	10.75
662.671	10.75
663.429	12.75
664.187	9.75
664.945	12.75
665.703	9.75
666.46	11.75
667.218	9.75
667.976	10.75
668.733	10.75
669.49	9.75
670.248	10.75
671.005	10.75
671.762	8.75
672.519	8.75
673.276	8.75
674.033	7.75
674.79	9.75
675.547	8.75
676.304	9.75
677.06	7.75
677.817	9.75
678.574	7.75
679.33	10.75
680.086	7.75
680.843	9.75
681.599	10.75
682.355	8.75
683.111	6.75
683.867	9.75
684.623	7.75
685.379	8.75
686.135	9.75
686.89	8.75
687.646	5.75
688.402	6.75
689.157	6.75
689.912	8.75
690.668	6.75
691.423	7.75
692.178	7.75
692.933	8.75
693.688	6.75
694.443	8.75
695.198	7.75
695.953	6.75
696.708	5.75
697.462	8.75
698.217	7.75
698.972	7.75
699.726	5.75
700.48	5.75
701.235	7.75
701.989	6.75
702.743	7.75
703.497	7.75
704.251	5.75
705.005	7.75
705.759	4.75
706.513	5.75
707.266	8.75
708.02	4.75
708.774	6.75
709.527	7.75
710.28	8.75
711.034	5.75
711.787	7.75
712.54	7.75
713.293	5.75
714.046	7.75
714.799	8.75
715.552	9.75
716.305	4.75
717.058	7.75
717.81	7.75
718.563	6.75
719.315	6.75
720.068	8.75
720.82	7.75
721.573	7.75
722.325	6.75
723.077	8.75
723.829	7.75
724.581	7.75
725.333	6.75
726.085	6.75
726.836	8.75
727.588	6.75
728.34	9.75
729.091	6.75
729.843	7.75
730.594	7.75
731.346	7.75
732.097	7.75
732.848	6.75
733.599	11.75
734.35	8.75
735.101	8.75
735.852	10.75
736.603	8.75
737.354	10.75
738.104	7.75
738.855	8.75
739.605	10.75
740.356	9.75
741.106	10.75
741.856	7.75
742.607	9.75
743.357	8.75
744.107	10.75
744.857	9.75
745.607	8.75
746.357	9.75
747.106	10.75
747.856	12.75
748.606	9.75
749.355	9.75
750.105	12.75
750.854	10.75
751.603	8.75
752.353	10.75
753.102	8.75
753.851	10.75
754.6	8.75
755.349	8.75
756.098	10.75
756.847	11.75
757.595	11.75
758.344	10.75
759.093	11.75
759.841	11.75
760.589	10.75
761.338	9.75
762.086	12.75
762.834	13.75
763.582	10.75
764.331	15.75
765.079	12.75
765.826	12.75
766.574	12.75
767.322	13.75
768.07	11.75
768.817	9.75
769.565	12.75
770.312	10.75
771.06	11.75
771.807	12.75
772.554	13.75
773.302	14.75
774.049	12.75
774.796	14.75
775.543	12.75
776.29	13.75
777.036	13.75
777.783	12.75
778.53	14.75
779.276	14.75
780.023	16.75
780.769	14.75
781.516	14.75
782.262	12.75
783.008	9.75
783.754	16.75
784.5	12.75
785.246	17.75
785.992	15.75
786.738	14.75
787.484	14.75
788.23	13.75
788.975	16.75
789.721	14.75
790.466	14.75
791.212	13.75
791.957	13.75
792.702	12.75
793.447	14.75
794.193	15.75
794.938	13.75
795.683	13.75
796.427	13.75
797.172	13.75
797.917	15.75
798.662	12.75
799.406	13.75
800.151	12.75
800.895	11.75
801.64	9.75
802.384	10.75
803.128	10.75
803.872	9.75
804.616	12.75
805.36	10.75
806.104	10.75
806.848	9.75
807.592	7.75
808.336	11.75
809.079	6.75
809.823	5.75
810.566	11.75
811.31	9.75
812.053	9.75
812.796	9.75
813.539	7.75
814.283	9.75
815.026	7.75
815.769	10.75
816.511	7.75
817.254	6.75
817.997	6.75
818.74	8.75
819.482	7.75
820.225	6.75
820.967	7.75
821.71	6.75
822.452	9.75
823.194	7.75
823.936	4.75
824.678	6.75
825.42	6.75
826.162	6.75
826.904	8.75
827.646	5.75
828.388	6.75
829.129	4.75
829.871	9.75
830.612	7.75
831.354	4.75
832.095	6.75
832.836	3.75
833.577	5.75
834.319	1.75
835.06	5.75
835.801	7.75
836.542	7.75
837.282	3.75
838.023	5.75
838.764	8.75
839.504	5.75
840.245	7.75
840.985	6.75
841.726	3.75
842.466	6.75
843.206	6.75
843.946	4.75
844.687	5.75
845.427	5.75
846.166	4.75
846.906	5.75
847.646	2.75
848.386	3.75
849.125	3.75
849.865	4.75
850.605	3.75
851.344	4.75
852.083	2.75
852.823	3.75
853.562	5.75
854.301	2.75
855.04	3.75
855.779	4.75
856.518	4.75
857.257	3.75
857.995	4.75
858.734	4.75
859.473	5.75
860.211	4.75
860.95	2.75
861.688	1.75
862.426	3.75
863.165	3.75
863.903	2.75
864.641	1.75
865.379	1.75
866.117	1.75
866.855	4.75
867.593	2.75
868.33	2.75
869.068	3.75
869.806	1.75
870.543	4.75
871.28	0.75
872.018	2.75
872.755	3.75
873.492	3.75
874.229	2.75
874.967	0.75
875.703	4.75
876.44	2.75
877.177	2.75
877.914	2.75
878.651	0.75
879.387	3.75
880.124	1.75
880.86	2.75
881.597	0.75
882.333	0.75
883.069	0.75
883.806	0.75
884.542	2.75
885.278	0.75
886.014	1.75
886.749	0.75
887.485	1.75
888.221	0.75
888.957	0.75
889.692	0.75
890.428	0.75
891.163	-0.25
891.899	1.75
892.634	-1.25
893.369	0.75
894.104	1.75
894.839	1.75
895.574	0.75
896.309	-0.25
897.044	1.75
897.779	-0.25
898.514	2.75
899.248	-0.25
899.983	2.75
900.717	2.75
901.452	0.75
902.186	1.75
902.92	0.75
903.654	-1.25
904.389	-0.25
905.123	0.75
905.857	2.75
906.59	-0.25
907.324	1.75
908.058	1.75
908.792	0.75
909.525	1.75
910.259	0.75
910.992	-0.25
911.726	0.75
912.459	-0.25
913.192	-1.25
913.925	2.75
914.658	0.75
915.391	-0.25
916.124	2.75
916.857	0.75
917.59	0.75
918.323	-0.25
919.055	1.75
919.788	-0.25
920.521	1.75
921.253	2.75
921.985	-1.25
922.718	0.75
923.45	0.75
924.182	1.75
924.914	0.75
925.646	0.75
926.378	-0.25
927.11	-1.25
927.841	0.75
928.573	-0.25
929.305	-1.25
930.036	2.75
930.768	-0.25
931.499	0.75
932.23	-1.25
932.962	-1.25
933.693	0.75
934.424	-3.25
935.155	0.75
935.886	1.75
936.617	1.75
937.348	0.75
938.078	-0.25
938.809	1.75
939.54	-1.25
940.27	0.75
941.001	0.75
941.731	2.75
942.461	-1.25
943.191	-1.25
943.922	-1.25
944.652	-1.25
945.382	-2.25
946.112	-0.25
946.841	-1.25
947.571	-0.25
948.301	-0.25
949.031	-0.25
949.76	-0.25
950.49	-0.25
951.219	-0.25
951.948	0.75
952.678	0.75
953.407	-2.25
954.136	0.75
954.865	-0.25
955.594	-0.25
956.323	1.75
957.052	0.75
957.78	0.75
958.509	-0.25
959.238	0.75
959.966	1.75
960.695	-1.25
961.423	-0.25
962.151	-0.25
962.88	0.75
963.608	1.75
964.336	2.75
965.064	0.75
965.792	0.75
966.52	-0.25
967.247	0.75
967.975	1.75
968.703	0.75
969.43	0.75
970.158	1.75
970.885	-0.25
971.613	1.75
972.34	-0.25
973.067	1.75
973.794	-0.25
974.521	-1.25
975.248	1.75
975.975	-0.25
976.702	0.75
977.429	-1.25
978.156	-1.25
978.882	0.75
979.609	-2.25
980.335	0.75
981.062	0.75
981.788	1.75
982.514	1.75
983.24	-0.25
983.967	0.75
984.693	-0.25
985.419	0.75
986.144	-0.25
986.87	0.75
987.596	0.75
988.322	-1.25
989.047	1.75
989.773	-0.25
990.498	-1.25
991.224	-1.25
991.949	-0.25
992.674	-0.25
993.399	-2.25
994.124	0.75
994.849	-1.25
995.574	0.75
996.299	1.75
997.024	0.75
997.749	-1.25
998.473	2.75
999.198	0.75
999.922	0.75
1000.647	-1.25
1001.371	5.75
1002.095	-1.25
1002.82	-0.25
1003.544	-2.25
1004.268	7.75
1004.992	3.75
1005.716	5.75
1006.439	4.75
1007.163	2.75
1007.887	6.75
1008.611	0.75
1009.334	-0.25
1010.058	1.75
1010.781	-1.25
1011.504	0.75
1012.228	1.75
1012.951	0.75
1013.674	-0.25
1014.397	-1.25
1015.12	-1.25
