节点500_705_QEPB04081__81__20-47-14-262.txt的数据

Date: Wed Nov 12 20:47:14 CST 2025
User: PC
Spectrometer: QEPB0408
触发模式: 0
积分时间 (秒): 1.000000E-2
Scans to average: 1
启用暗噪声校正: true
启用非线性校正: false
滑动平均宽度: 0
X轴模式: Wavelengths
Number of Pixels in Spectrum: 1044
>>>>>Begin Spectral Data<<<<<
220.843	4.25
221.644	7.25
222.444	8.25
223.244	7.25
224.045	9.25
224.845	5.25
225.645	9.25
226.445	6.25
227.245	9.25
228.045	9.25
228.845	8.25
229.645	8.25
230.444	6.25
231.244	9.25
232.043	9.25
232.843	9.25
233.642	9.25
234.442	11.25
235.241	11.25
236.04	11.25
236.839	11.25
237.638	11.25
238.437	12.25
239.236	8.25
240.035	11.25
240.833	13.25
241.632	13.25
242.43	13.25
243.229	14.25
244.027	14.25
244.826	12.25
245.624	14.25
246.422	15.25
247.22	13.25
248.018	14.25
248.816	15.25
249.614	20.25
250.412	17.25
251.21	18.25
252.007	19.25
252.805	22.25
253.602	19.25
254.4	18.25
255.197	19.25
255.994	19.25
256.791	22.25
257.589	22.25
258.386	20.25
259.183	25.25
259.979	22.25
260.776	27.25
261.573	26.25
262.37	27.25
263.166	27.25
263.963	27.25
264.759	27.25
265.556	27.25
266.352	30.25
267.148	30.25
267.944	30.25
268.74	34.25
269.536	29.25
270.332	30.25
271.128	31.25
271.924	35.25
272.719	38.25
273.515	35.25
274.311	37.25
275.106	38.25
275.901	33.25
276.697	32.25
277.492	36.25
278.287	41.25
279.082	36.25
279.877	41.25
280.672	36.25
281.467	36.25
282.262	39.25
283.056	37.25
283.851	38.25
284.646	40.25
285.44	34.25
286.234	35.25
287.029	35.25
287.823	34.25
288.617	35.25
289.411	33.25
290.205	32.25
290.999	35.25
291.793	36.25
292.587	33.25
293.381	32.25
294.174	31.25
294.968	30.25
295.761	27.25
296.555	27.25
297.348	27.25
298.141	26.25
298.935	28.25
299.728	27.25
300.521	24.25
301.314	24.25
302.107	26.25
302.899	24.25
303.692	23.25
304.485	21.25
305.277	26.25
306.07	20.25
306.862	23.25
307.655	23.25
308.447	25.25
309.239	20.25
310.031	21.25
310.823	18.25
311.615	17.25
312.407	19.25
313.199	21.25
313.991	17.25
314.783	17.25
315.574	17.25
316.366	16.25
317.157	14.25
317.949	14.25
318.74	15.25
319.531	15.25
320.322	15.25
321.113	11.25
321.904	13.25
322.695	14.25
323.486	14.25
324.277	12.25
325.068	13.25
325.858	12.25
326.649	13.25
327.439	14.25
328.23	15.25
329.02	12.25
329.81	12.25
330.6	12.25
331.391	13.25
332.181	13.25
332.971	12.25
333.76	11.25
334.55	12.25
335.34	12.25
336.13	11.25
336.919	15.25
337.709	12.25
338.498	11.25
339.287	15.25
340.077	11.25
340.866	13.25
341.655	12.25
342.444	11.25
343.233	12.25
344.022	13.25
344.811	13.25
345.6	11.25
346.388	14.25
347.177	10.25
347.965	14.25
348.754	12.25
349.542	12.25
350.33	11.25
351.119	9.25
351.907	12.25
352.695	11.25
353.483	11.25
354.271	13.25
355.059	10.25
355.846	10.25
356.634	10.25
357.422	10.25
358.209	11.25
358.997	12.25
359.784	9.25
360.571	12.25
361.359	10.25
362.146	9.25
362.933	11.25
363.72	10.25
364.507	10.25
365.294	11.25
366.081	8.25
366.867	9.25
367.654	9.25
368.44	11.25
369.227	11.25
370.013	10.25
370.8	10.25
371.586	11.25
372.372	11.25
373.158	10.25
373.944	8.25
374.73	11.25
375.516	11.25
376.302	9.25
377.088	11.25
377.873	10.25
378.659	8.25
379.445	11.25
380.23	8.25
381.015	11.25
381.801	8.25
382.586	11.25
383.371	8.25
384.156	9.25
384.941	10.25
385.726	13.25
386.511	11.25
387.296	11.25
388.08	11.25
388.865	14.25
389.649	12.25
390.434	11.25
391.218	13.25
392.003	13.25
392.787	13.25
393.571	12.25
394.355	13.25
395.139	13.25
395.923	15.25
396.707	12.25
397.491	15.25
398.274	14.25
399.058	15.25
399.842	15.25
400.625	14.25
401.408	11.25
402.192	15.25
402.975	13.25
403.758	14.25
404.541	17.25
405.324	13.25
406.107	17.25
406.89	16.25
407.673	17.25
408.456	19.25
409.238	16.25
410.021	18.25
410.803	17.25
411.586	16.25
412.368	18.25
413.151	17.25
413.933	19.25
414.715	16.25
415.497	19.25
416.279	22.25
417.061	19.25
417.843	23.25
418.624	20.25
419.406	22.25
420.188	22.25
420.969	23.25
421.751	23.25
422.532	22.25
423.313	23.25
424.095	25.25
424.876	26.25
425.657	24.25
426.438	26.25
427.219	26.25
428	26.25
428.78	27.25
429.561	29.25
430.342	31.25
431.122	33.25
431.903	32.25
432.683	33.25
433.464	35.25
434.244	39.25
435.024	38.25
435.804	42.25
436.584	45.25
437.364	47.25
438.144	49.25
438.924	52.25
439.704	55.25
440.483	56.25
441.263	60.25
442.042	63.25
442.822	63.25
443.601	70.25
444.38	82.25
445.16	86.25
445.939	90.25
446.718	99.25
447.497	103.25
448.276	118.25
449.054	127.25
449.833	137.25
450.612	149.25
451.391	168.25
452.169	185.25
452.948	202.25
453.726	223.25
454.504	250.25
455.282	278.25
456.061	306.25
456.839	347.25
457.617	379.25
458.395	432.25
459.172	483.25
459.95	534.25
460.728	611.25
461.506	675.25
462.283	739.25
463.061	840.25
463.838	949.25
464.615	1050.25
465.393	1178.25
466.17	1309.25
466.947	1444.25
467.724	1634.25
468.501	1793.25
469.278	2011.25
470.055	2235.25
470.831	2470.25
471.608	2746.25
472.385	3048.25
473.161	3356.25
473.938	3710.25
474.714	4062.25
475.49	4519.25
476.266	4965.25
477.043	5457.25
477.819	5999.25
478.595	6581.25
479.371	7198.25
480.146	7902.25
480.922	8666.25
481.698	9484.25
482.473	10385.25
483.249	11377.25
484.024	12327.25
484.8	13463.25
485.575	14682.25
486.35	15982.25
487.126	17325.25
487.901	18812.25
488.676	20370.25
489.451	22070.25
490.225	23722.25
491	25533.25
491.775	27346.25
492.55	29298.25
493.324	31088.25
494.099	33160.25
494.873	35067.25
495.647	37111.25
496.422	38896.25
497.196	40906.25
497.97	42623.25
498.744	44153.25
499.518	45697.25
500.292	47017.25
501.066	47912.25
501.839	48718.25
502.613	49331.25
503.387	49678.25
504.16	49946.25
504.934	49830.25
505.707	49386.25
506.48	48760.25
507.253	48011.25
508.027	46918.25
508.8	45747.25
509.573	44466.25
510.346	43085.25
511.118	41853.25
511.891	40438.25
512.664	38733.25
513.437	37129.25
514.209	35656.25
514.982	34241.25
515.754	32799.25
516.526	31428.25
517.298	30126.25
518.071	28886.25
518.843	27677.25
519.615	26533.25
520.387	25558.25
521.159	24471.25
521.93	23427.25
522.702	22447.25
523.474	21471.25
524.245	20546.25
525.017	19576.25
525.788	18661.25
526.56	17874.25
527.331	17099.25
528.102	16145.25
528.873	15363.25
529.644	14560.25
530.415	13888.25
531.186	13205.25
531.957	12481.25
532.728	11785.25
533.498	11162.25
534.269	10537.25
535.039	9989.25
535.81	9438.25
536.58	8912.25
537.351	8415.25
538.121	8011.25
538.891	7561.25
539.661	7155.25
540.431	6811.25
541.201	6413.25
541.971	6087.25
542.741	5751.25
543.51	5461.25
544.28	5214.25
545.05	4979.25
545.819	4713.25
546.588	4508.25
547.358	4310.25
548.127	4076.25
548.896	3840.25
549.665	3640.25
550.434	3461.25
551.203	3270.25
551.972	3102.25
552.741	2943.25
553.51	2771.25
554.278	2624.25
555.047	2454.25
555.815	2361.25
556.584	2193.25
557.352	2097.25
558.121	1960.25
558.889	1854.25
559.657	1742.25
560.425	1668.25
561.193	1557.25
561.961	1485.25
562.729	1391.25
563.496	1324.25
564.264	1246.25
565.032	1182.25
565.799	1126.25
566.567	1073.25
567.334	1011.25
568.101	957.25
568.869	889.25
569.636	862.25
570.403	797.25
571.17	759.25
571.937	719.25
572.704	670.25
573.471	632.25
574.237	607.25
575.004	559.25
575.771	535.25
576.537	493.25
577.303	470.25
578.07	452.25
578.836	421.25
579.602	391.25
580.368	371.25
581.134	362.25
581.9	340.25
582.666	317.25
583.432	307.25
584.198	298.25
584.964	277.25
585.729	266.25
586.495	256.25
587.26	238.25
588.025	228.25
588.791	216.25
589.556	203.25
590.321	194.25
591.086	187.25
591.851	176.25
592.616	171.25
593.381	164.25
594.146	148.25
594.911	146.25
595.675	141.25
596.44	133.25
597.204	126.25
597.969	122.25
598.733	114.25
599.497	109.25
600.261	106.25
601.025	103.25
601.79	94.25
602.553	98.25
603.317	89.25
604.081	80.25
604.845	81.25
605.609	74.25
606.372	78.25
607.136	75.25
607.899	69.25
608.662	70.25
609.426	66.25
610.189	68.25
610.952	62.25
611.715	60.25
612.478	57.25
613.241	54.25
614.004	53.25
614.767	48.25
615.529	50.25
616.292	49.25
617.055	49.25
617.817	44.25
618.579	43.25
619.342	41.25
620.104	41.25
620.866	39.25
621.628	39.25
622.39	40.25
623.152	35.25
623.914	32.25
624.676	35.25
625.438	35.25
626.199	34.25
626.961	30.25
627.722	30.25
628.484	29.25
629.245	29.25
630.006	26.25
630.768	27.25
631.529	27.25
632.29	27.25
633.051	25.25
633.812	25.25
634.573	22.25
635.333	22.25
636.094	23.25
636.855	20.25
637.615	22.25
638.376	21.25
639.136	21.25
639.896	23.25
640.657	19.25
641.417	19.25
642.177	18.25
642.937	19.25
643.697	17.25
644.457	16.25
645.216	17.25
645.976	15.25
646.736	17.25
647.495	13.25
648.255	16.25
649.014	15.25
649.774	15.25
650.533	17.25
651.292	13.25
652.051	14.25
652.81	15.25
653.569	14.25
654.328	15.25
655.087	12.25
655.846	12.25
656.604	14.25
657.363	13.25
658.121	11.25
658.88	11.25
659.638	13.25
660.397	10.25
661.155	12.25
661.913	11.25
662.671	11.25
663.429	10.25
664.187	9.25
664.945	12.25
665.703	12.25
666.46	10.25
667.218	10.25
667.976	13.25
668.733	8.25
669.49	9.25
670.248	11.25
671.005	9.25
671.762	10.25
672.519	9.25
673.276	8.25
674.033	9.25
674.79	9.25
675.547	10.25
676.304	5.25
677.06	8.25
677.817	9.25
678.574	11.25
679.33	8.25
680.086	7.25
680.843	9.25
681.599	10.25
682.355	10.25
683.111	8.25
683.867	9.25
684.623	10.25
685.379	8.25
686.135	10.25
686.89	6.25
687.646	11.25
688.402	8.25
689.157	8.25
689.912	7.25
690.668	9.25
691.423	8.25
692.178	9.25
692.933	10.25
693.688	9.25
694.443	10.25
695.198	10.25
695.953	6.25
696.708	9.25
697.462	6.25
698.217	8.25
698.972	8.25
699.726	8.25
700.48	6.25
701.235	5.25
701.989	8.25
702.743	10.25
703.497	7.25
704.251	8.25
705.005	7.25
705.759	9.25
706.513	8.25
707.266	9.25
708.02	5.25
708.774	10.25
709.527	9.25
710.28	8.25
711.034	8.25
711.787	8.25
712.54	5.25
713.293	6.25
714.046	10.25
714.799	8.25
715.552	6.25
716.305	8.25
717.058	8.25
717.81	8.25
718.563	8.25
719.315	8.25
720.068	8.25
720.82	10.25
721.573	9.25
722.325	10.25
723.077	9.25
723.829	10.25
724.581	7.25
725.333	7.25
726.085	7.25
726.836	7.25
727.588	9.25
728.34	9.25
729.091	7.25
729.843	9.25
730.594	10.25
731.346	8.25
732.097	11.25
732.848	10.25
733.599	11.25
734.35	10.25
735.101	8.25
735.852	10.25
736.603	10.25
737.354	9.25
738.104	12.25
738.855	9.25
739.605	11.25
740.356	10.25
741.106	10.25
741.856	11.25
742.607	10.25
743.357	11.25
744.107	9.25
744.857	11.25
745.607	11.25
746.357	11.25
747.106	11.25
747.856	11.25
748.606	12.25
749.355	11.25
750.105	11.25
750.854	12.25
751.603	12.25
752.353	13.25
753.102	10.25
753.851	12.25
754.6	13.25
755.349	14.25
756.098	11.25
756.847	11.25
757.595	14.25
758.344	14.25
759.093	12.25
759.841	13.25
760.589	12.25
761.338	12.25
762.086	10.25
762.834	13.25
763.582	13.25
764.331	16.25
765.079	15.25
765.826	17.25
766.574	17.25
767.322	15.25
768.07	13.25
768.817	17.25
769.565	15.25
770.312	16.25
771.06	16.25
771.807	16.25
772.554	14.25
773.302	18.25
774.049	15.25
774.796	15.25
775.543	18.25
776.29	13.25
777.036	18.25
777.783	18.25
778.53	17.25
779.276	17.25
780.023	16.25
780.769	19.25
781.516	16.25
782.262	17.25
783.008	15.25
783.754	17.25
784.5	17.25
785.246	19.25
785.992	15.25
786.738	17.25
787.484	15.25
788.23	18.25
788.975	18.25
789.721	14.25
790.466	14.25
791.212	16.25
791.957	14.25
792.702	16.25
793.447	15.25
794.193	15.25
794.938	16.25
795.683	16.25
796.427	14.25
797.172	14.25
797.917	15.25
798.662	11.25
799.406	12.25
800.151	15.25
800.895	15.25
801.64	15.25
802.384	13.25
803.128	10.25
803.872	13.25
804.616	12.25
805.36	13.25
806.104	11.25
806.848	9.25
807.592	11.25
808.336	7.25
809.079	10.25
809.823	11.25
810.566	11.25
811.31	11.25
812.053	12.25
812.796	7.25
813.539	8.25
814.283	12.25
815.026	9.25
815.769	9.25
816.511	8.25
817.254	6.25
817.997	9.25
818.74	7.25
819.482	9.25
820.225	7.25
820.967	8.25
821.71	7.25
822.452	6.25
823.194	9.25
823.936	8.25
824.678	7.25
825.42	6.25
826.162	7.25
826.904	5.25
827.646	7.25
828.388	8.25
829.129	6.25
829.871	6.25
830.612	8.25
831.354	7.25
832.095	7.25
832.836	5.25
833.577	7.25
834.319	6.25
835.06	5.25
835.801	5.25
836.542	6.25
837.282	7.25
838.023	5.25
838.764	8.25
839.504	6.25
840.245	3.25
840.985	6.25
841.726	5.25
842.466	8.25
843.206	4.25
843.946	5.25
844.687	4.25
845.427	5.25
846.166	6.25
846.906	3.25
847.646	5.25
848.386	5.25
849.125	4.25
849.865	5.25
850.605	5.25
851.344	5.25
852.083	4.25
852.823	4.25
853.562	6.25
854.301	3.25
855.04	5.25
855.779	5.25
856.518	5.25
857.257	3.25
857.995	4.25
858.734	6.25
859.473	4.25
860.211	5.25
860.95	4.25
861.688	1.25
862.426	2.25
863.165	3.25
863.903	5.25
864.641	3.25
865.379	2.25
866.117	1.25
866.855	3.25
867.593	5.25
868.33	0.25
869.068	4.25
869.806	1.25
870.543	1.25
871.28	1.25
872.018	2.25
872.755	3.25
873.492	0.25
874.229	2.25
874.967	0.25
875.703	1.25
876.44	1.25
877.177	-0.75
877.914	3.25
878.651	1.25
879.387	3.25
880.124	0.25
880.86	0.25
881.597	4.25
882.333	2.25
883.069	5.25
883.806	2.25
884.542	4.25
885.278	2.25
886.014	0.25
886.749	5.25
887.485	0.25
888.221	1.25
888.957	3.25
889.692	3.25
890.428	2.25
891.163	1.25
891.899	3.25
892.634	3.25
893.369	2.25
894.104	1.25
894.839	1.25
895.574	2.25
896.309	2.25
897.044	1.25
897.779	2.25
898.514	0.25
899.248	-0.75
899.983	1.25
900.717	2.25
901.452	-0.75
902.186	3.25
902.92	1.25
903.654	1.25
904.389	2.25
905.123	3.25
905.857	0.25
906.59	1.25
907.324	2.25
908.058	2.25
908.792	1.25
909.525	1.25
910.259	1.25
910.992	-0.75
911.726	2.25
912.459	0.25
913.192	-1.75
913.925	-0.75
914.658	1.25
915.391	2.25
916.124	2.25
916.857	-0.75
917.59	0.25
918.323	1.25
919.055	0.25
919.788	-0.75
920.521	0.25
921.253	1.25
921.985	-0.75
922.718	-0.75
923.45	0.25
924.182	-0.75
924.914	2.25
925.646	1.25
926.378	-0.75
927.11	0.25
927.841	-0.75
928.573	1.25
929.305	1.25
930.036	0.25
930.768	-0.75
931.499	-0.75
932.23	1.25
932.962	-0.75
933.693	-0.75
934.424	1.25
935.155	1.25
935.886	1.25
936.617	-0.75
937.348	0.25
938.078	0.25
938.809	-0.75
939.54	3.25
940.27	1.25
941.001	1.25
941.731	0.25
942.461	2.25
943.191	-0.75
943.922	-0.75
944.652	-0.75
945.382	0.25
946.112	0.25
946.841	0.25
947.571	-0.75
948.301	0.25
949.031	-0.75
949.76	1.25
950.49	-0.75
951.219	1.25
951.948	-0.75
952.678	0.25
953.407	0.25
954.136	-0.75
954.865	2.25
955.594	0.25
956.323	2.25
957.052	2.25
957.78	0.25
958.509	1.25
959.238	1.25
959.966	2.25
960.695	0.25
961.423	-0.75
962.151	-0.75
962.88	0.25
963.608	1.25
964.336	0.25
965.064	1.25
965.792	0.25
966.52	-1.75
967.247	-0.75
967.975	1.25
968.703	0.25
969.43	1.25
970.158	-0.75
970.885	3.25
971.613	0.25
972.34	3.25
973.067	0.25
973.794	1.25
974.521	0.25
975.248	0.25
975.975	-0.75
976.702	2.25
977.429	2.25
978.156	-0.75
978.882	1.25
979.609	1.25
980.335	0.25
981.062	2.25
981.788	-2.75
982.514	2.25
983.24	1.25
983.967	0.25
984.693	2.25
985.419	0.25
986.144	2.25
986.87	1.25
987.596	0.25
988.322	-0.75
989.047	1.25
989.773	0.25
990.498	1.25
991.224	2.25
991.949	1.25
992.674	1.25
993.399	-0.75
994.124	1.25
994.849	-0.75
995.574	-0.75
996.299	0.25
997.024	2.25
997.749	1.25
998.473	1.25
999.198	-0.75
999.922	-1.75
1000.647	0.25
1001.371	1.25
1002.095	1.25
1002.82	-0.75
1003.544	-0.75
1004.268	4.25
1004.992	7.25
1005.716	4.25
1006.439	3.25
1007.163	4.25
1007.887	4.25
1008.611	1.25
1009.334	0.25
1010.058	1.25
1010.781	2.25
1011.504	-1.75
1012.228	2.25
1012.951	-0.75
1013.674	-0.75
1014.397	0.25
1015.12	0.25
