节点500_705_QEPB04081__403__20-51-38-668.txt的数据

Date: Wed Nov 12 20:51:38 CST 2025
User: PC
Spectrometer: QEPB0408
触发模式: 0
积分时间 (秒): 1.000000E-2
Scans to average: 1
启用暗噪声校正: true
启用非线性校正: false
滑动平均宽度: 0
X轴模式: Wavelengths
Number of Pixels in Spectrum: 1044
>>>>>Begin Spectral Data<<<<<
220.843	4.75
221.644	7.75
222.444	5.75
223.244	7.75
224.045	5.75
224.845	7.75
225.645	6.75
226.445	4.75
227.245	7.75
228.045	6.75
228.845	7.75
229.645	7.75
230.444	6.75
231.244	5.75
232.043	7.75
232.843	9.75
233.642	10.75
234.442	8.75
235.241	10.75
236.04	9.75
236.839	10.75
237.638	8.75
238.437	12.75
239.236	8.75
240.035	12.75
240.833	10.75
241.632	10.75
242.43	10.75
243.229	12.75
244.027	15.75
244.826	11.75
245.624	12.75
246.422	14.75
247.22	14.75
248.018	10.75
248.816	10.75
249.614	13.75
250.412	17.75
251.21	15.75
252.007	16.75
252.805	16.75
253.602	14.75
254.4	19.75
255.197	16.75
255.994	17.75
256.791	21.75
257.589	21.75
258.386	20.75
259.183	21.75
259.979	18.75
260.776	23.75
261.573	20.75
262.37	21.75
263.166	24.75
263.963	23.75
264.759	27.75
265.556	26.75
266.352	24.75
267.148	26.75
267.944	22.75
268.74	28.75
269.536	26.75
270.332	26.75
271.128	27.75
271.924	28.75
272.719	30.75
273.515	32.75
274.311	31.75
275.106	29.75
275.901	30.75
276.697	30.75
277.492	32.75
278.287	32.75
279.082	34.75
279.877	34.75
280.672	30.75
281.467	33.75
282.262	32.75
283.056	33.75
283.851	32.75
284.646	32.75
285.44	32.75
286.234	33.75
287.029	30.75
287.823	34.75
288.617	32.75
289.411	33.75
290.205	32.75
290.999	30.75
291.793	30.75
292.587	29.75
293.381	32.75
294.174	29.75
294.968	29.75
295.761	27.75
296.555	25.75
297.348	26.75
298.141	26.75
298.935	26.75
299.728	28.75
300.521	25.75
301.314	21.75
302.107	21.75
302.899	21.75
303.692	20.75
304.485	18.75
305.277	25.75
306.07	23.75
306.862	19.75
307.655	19.75
308.447	22.75
309.239	20.75
310.031	21.75
310.823	19.75
311.615	19.75
312.407	20.75
313.199	17.75
313.991	18.75
314.783	14.75
315.574	15.75
316.366	14.75
317.157	16.75
317.949	12.75
318.74	14.75
319.531	17.75
320.322	14.75
321.113	14.75
321.904	16.75
322.695	14.75
323.486	14.75
324.277	12.75
325.068	12.75
325.858	10.75
326.649	12.75
327.439	14.75
328.23	12.75
329.02	12.75
329.81	12.75
330.6	12.75
331.391	12.75
332.181	11.75
332.971	11.75
333.76	9.75
334.55	12.75
335.34	12.75
336.13	10.75
336.919	12.75
337.709	10.75
338.498	13.75
339.287	10.75
340.077	12.75
340.866	10.75
341.655	12.75
342.444	10.75
343.233	11.75
344.022	10.75
344.811	12.75
345.6	10.75
346.388	9.75
347.177	12.75
347.965	12.75
348.754	10.75
349.542	9.75
350.33	7.75
351.119	9.75
351.907	9.75
352.695	9.75
353.483	10.75
354.271	8.75
355.059	11.75
355.846	9.75
356.634	10.75
357.422	11.75
358.209	7.75
358.997	10.75
359.784	10.75
360.571	10.75
361.359	11.75
362.146	7.75
362.933	9.75
363.72	10.75
364.507	11.75
365.294	8.75
366.081	7.75
366.867	9.75
367.654	8.75
368.44	8.75
369.227	8.75
370.013	7.75
370.8	9.75
371.586	8.75
372.372	7.75
373.158	9.75
373.944	9.75
374.73	9.75
375.516	6.75
376.302	10.75
377.088	10.75
377.873	8.75
378.659	9.75
379.445	8.75
380.23	10.75
381.015	9.75
381.801	11.75
382.586	8.75
383.371	10.75
384.156	12.75
384.941	9.75
385.726	9.75
386.511	9.75
387.296	12.75
388.08	12.75
388.865	11.75
389.649	12.75
390.434	10.75
391.218	12.75
392.003	10.75
392.787	12.75
393.571	13.75
394.355	11.75
395.139	11.75
395.923	14.75
396.707	13.75
397.491	10.75
398.274	12.75
399.058	14.75
399.842	11.75
400.625	15.75
401.408	12.75
402.192	12.75
402.975	16.75
403.758	13.75
404.541	14.75
405.324	14.75
406.107	15.75
406.89	14.75
407.673	14.75
408.456	15.75
409.238	14.75
410.021	14.75
410.803	16.75
411.586	17.75
412.368	17.75
413.151	18.75
413.933	17.75
414.715	16.75
415.497	17.75
416.279	17.75
417.061	16.75
417.843	20.75
418.624	19.75
419.406	19.75
420.188	18.75
420.969	17.75
421.751	23.75
422.532	22.75
423.313	24.75
424.095	21.75
424.876	21.75
425.657	22.75
426.438	24.75
427.219	27.75
428	26.75
428.78	26.75
429.561	25.75
430.342	30.75
431.122	29.75
431.903	32.75
432.683	32.75
433.464	34.75
434.244	39.75
435.024	39.75
435.804	41.75
436.584	40.75
437.364	40.75
438.144	44.75
438.924	50.75
439.704	52.75
440.483	59.75
441.263	57.75
442.042	65.75
442.822	69.75
443.601	79.75
444.38	82.75
445.16	88.75
445.939	95.75
446.718	105.75
447.497	112.75
448.276	123.75
449.054	136.75
449.833	150.75
450.612	162.75
451.391	178.75
452.169	194.75
452.948	222.75
453.726	243.75
454.504	276.75
455.282	307.75
456.061	334.75
456.839	368.75
457.617	420.75
458.395	467.75
459.172	515.75
459.95	581.75
460.728	648.75
461.506	721.75
462.283	801.75
463.061	893.75
463.838	1004.75
464.615	1113.75
465.393	1213.75
466.17	1371.75
466.947	1517.75
467.724	1678.75
468.501	1853.75
469.278	2059.75
470.055	2276.75
470.831	2507.75
471.608	2768.75
472.385	3050.75
473.161	3358.75
473.938	3686.75
474.714	4039.75
475.49	4454.75
476.266	4843.75
477.043	5287.75
477.819	5777.75
478.595	6331.75
479.371	6883.75
480.146	7496.75
480.922	8156.75
481.698	8872.75
482.473	9663.75
483.249	10490.75
484.024	11382.75
484.8	12332.75
485.575	13320.75
486.35	14477.75
487.126	15594.75
487.901	16909.75
488.676	18225.75
489.451	19608.75
490.225	21051.75
491	22588.75
491.775	24144.75
492.55	25802.75
493.324	27389.75
494.099	29211.75
494.873	30943.75
495.647	32659.75
496.422	34324.75
497.196	36129.75
497.97	37750.75
498.744	39197.75
499.518	40872.75
500.292	42135.75
501.066	43236.75
501.839	44112.75
502.613	45019.75
503.387	45703.75
504.16	46250.75
504.934	46263.75
505.707	46401.75
506.48	46224.75
507.253	45793.75
508.027	45097.75
508.8	44346.75
509.573	43423.75
510.346	42310.75
511.118	41422.75
511.891	40184.75
512.664	38795.75
513.437	37292.75
514.209	36062.75
514.982	34714.75
515.754	33283.75
516.526	31921.75
517.298	30714.75
518.071	29565.75
518.843	28295.75
519.615	27184.75
520.387	26102.75
521.159	25152.75
521.93	24040.75
522.702	23013.75
523.474	22000.75
524.245	21132.75
525.017	20319.75
525.788	19434.75
526.56	18601.75
527.331	17774.75
528.102	16850.75
528.873	16102.75
529.644	15318.75
530.415	14589.75
531.186	13878.75
531.957	13185.75
532.728	12520.75
533.498	11915.75
534.269	11246.75
535.039	10650.75
535.81	10110.75
536.58	9536.75
537.351	9043.75
538.121	8536.75
538.891	8088.75
539.661	7633.75
540.431	7220.75
541.201	6875.75
541.971	6543.75
542.741	6177.75
543.51	5874.75
544.28	5559.75
545.05	5300.75
545.819	5062.75
546.588	4837.75
547.358	4610.75
548.127	4393.75
548.896	4167.75
549.665	3933.75
550.434	3718.75
551.203	3550.75
551.972	3362.75
552.741	3169.75
553.51	3013.75
554.278	2842.75
555.047	2679.75
555.815	2535.75
556.584	2396.75
557.352	2261.75
558.121	2136.75
558.889	2004.75
559.657	1888.75
560.425	1823.75
561.193	1704.75
561.961	1628.75
562.729	1533.75
563.496	1433.75
564.264	1365.75
565.032	1300.75
565.799	1221.75
566.567	1167.75
567.334	1082.75
568.101	1052.75
568.869	980.75
569.636	918.75
570.403	878.75
571.17	823.75
571.937	782.75
572.704	738.75
573.471	686.75
574.237	649.75
575.004	618.75
575.771	586.75
576.537	539.75
577.303	513.75
578.07	490.75
578.836	473.75
579.602	436.75
580.368	416.75
581.134	389.75
581.9	374.75
582.666	360.75
583.432	337.75
584.198	329.75
584.964	303.75
585.729	291.75
586.495	275.75
587.26	266.75
588.025	241.75
588.791	234.75
589.556	222.75
590.321	214.75
591.086	200.75
591.851	190.75
592.616	181.75
593.381	166.75
594.146	164.75
594.911	156.75
595.675	147.75
596.44	145.75
597.204	139.75
597.969	129.75
598.733	121.75
599.497	119.75
600.261	115.75
601.025	113.75
601.79	104.75
602.553	101.75
603.317	97.75
604.081	91.75
604.845	87.75
605.609	86.75
606.372	79.75
607.136	79.75
607.899	73.75
608.662	75.75
609.426	69.75
610.189	69.75
610.952	65.75
611.715	61.75
612.478	60.75
613.241	53.75
614.004	56.75
614.767	52.75
615.529	51.75
616.292	51.75
617.055	49.75
617.817	50.75
618.579	42.75
619.342	46.75
620.104	40.75
620.866	39.75
621.628	42.75
622.39	38.75
623.152	38.75
623.914	36.75
624.676	33.75
625.438	31.75
626.199	30.75
626.961	33.75
627.722	29.75
628.484	28.75
629.245	26.75
630.006	29.75
630.768	27.75
631.529	26.75
632.29	27.75
633.051	26.75
633.812	26.75
634.573	23.75
635.333	25.75
636.094	21.75
636.855	21.75
637.615	23.75
638.376	20.75
639.136	22.75
639.896	20.75
640.657	20.75
641.417	20.75
642.177	19.75
642.937	19.75
643.697	18.75
644.457	15.75
645.216	18.75
645.976	15.75
646.736	16.75
647.495	16.75
648.255	15.75
649.014	14.75
649.774	13.75
650.533	13.75
651.292	13.75
652.051	13.75
652.81	14.75
653.569	13.75
654.328	13.75
655.087	12.75
655.846	13.75
656.604	10.75
657.363	10.75
658.121	9.75
658.88	10.75
659.638	10.75
660.397	10.75
661.155	12.75
661.913	12.75
662.671	11.75
663.429	7.75
664.187	10.75
664.945	10.75
665.703	8.75
666.46	10.75
667.218	8.75
667.976	10.75
668.733	8.75
669.49	7.75
670.248	9.75
671.005	9.75
671.762	11.75
672.519	7.75
673.276	8.75
674.033	9.75
674.79	9.75
675.547	6.75
676.304	7.75
677.06	7.75
677.817	9.75
678.574	6.75
679.33	7.75
680.086	8.75
680.843	7.75
681.599	8.75
682.355	8.75
683.111	9.75
683.867	5.75
684.623	7.75
685.379	7.75
686.135	7.75
686.89	8.75
687.646	7.75
688.402	7.75
689.157	6.75
689.912	7.75
690.668	5.75
691.423	6.75
692.178	8.75
692.933	6.75
693.688	9.75
694.443	6.75
695.198	7.75
695.953	8.75
696.708	6.75
697.462	7.75
698.217	8.75
698.972	7.75
699.726	6.75
700.48	6.75
701.235	8.75
701.989	6.75
702.743	6.75
703.497	5.75
704.251	7.75
705.005	6.75
705.759	9.75
706.513	4.75
707.266	7.75
708.02	8.75
708.774	4.75
709.527	9.75
710.28	8.75
711.034	7.75
711.787	9.75
712.54	6.75
713.293	8.75
714.046	4.75
714.799	9.75
715.552	7.75
716.305	6.75
717.058	6.75
717.81	7.75
718.563	8.75
719.315	7.75
720.068	8.75
720.82	9.75
721.573	6.75
722.325	7.75
723.077	8.75
723.829	5.75
724.581	9.75
725.333	7.75
726.085	7.75
726.836	6.75
727.588	9.75
728.34	9.75
729.091	5.75
729.843	7.75
730.594	6.75
731.346	9.75
732.097	7.75
732.848	8.75
733.599	7.75
734.35	7.75
735.101	9.75
735.852	9.75
736.603	9.75
737.354	8.75
738.104	6.75
738.855	10.75
739.605	8.75
740.356	9.75
741.106	9.75
741.856	9.75
742.607	9.75
743.357	10.75
744.107	8.75
744.857	10.75
745.607	11.75
746.357	8.75
747.106	9.75
747.856	10.75
748.606	9.75
749.355	11.75
750.105	9.75
750.854	12.75
751.603	11.75
752.353	10.75
753.102	11.75
753.851	11.75
754.6	10.75
755.349	12.75
756.098	9.75
756.847	9.75
757.595	13.75
758.344	12.75
759.093	11.75
759.841	10.75
760.589	12.75
761.338	11.75
762.086	12.75
762.834	10.75
763.582	12.75
764.331	13.75
765.079	11.75
765.826	12.75
766.574	13.75
767.322	10.75
768.07	12.75
768.817	14.75
769.565	15.75
770.312	14.75
771.06	14.75
771.807	14.75
772.554	13.75
773.302	11.75
774.049	14.75
774.796	14.75
775.543	15.75
776.29	16.75
777.036	13.75
777.783	14.75
778.53	13.75
779.276	15.75
780.023	14.75
780.769	15.75
781.516	16.75
782.262	15.75
783.008	12.75
783.754	17.75
784.5	15.75
785.246	16.75
785.992	12.75
786.738	18.75
787.484	16.75
788.23	12.75
788.975	13.75
789.721	15.75
790.466	14.75
791.212	13.75
791.957	15.75
792.702	12.75
793.447	12.75
794.193	13.75
794.938	17.75
795.683	14.75
796.427	12.75
797.172	9.75
797.917	14.75
798.662	15.75
799.406	13.75
800.151	13.75
800.895	11.75
801.64	11.75
802.384	10.75
803.128	14.75
803.872	12.75
804.616	11.75
805.36	11.75
806.104	9.75
806.848	10.75
807.592	8.75
808.336	10.75
809.079	9.75
809.823	11.75
810.566	8.75
811.31	7.75
812.053	11.75
812.796	7.75
813.539	8.75
814.283	8.75
815.026	9.75
815.769	8.75
816.511	8.75
817.254	9.75
817.997	8.75
818.74	6.75
819.482	6.75
820.225	7.75
820.967	7.75
821.71	4.75
822.452	4.75
823.194	7.75
823.936	7.75
824.678	8.75
825.42	5.75
826.162	5.75
826.904	6.75
827.646	5.75
828.388	6.75
829.129	7.75
829.871	6.75
830.612	5.75
831.354	7.75
832.095	7.75
832.836	5.75
833.577	8.75
834.319	5.75
835.06	6.75
835.801	4.75
836.542	7.75
837.282	6.75
838.023	7.75
838.764	8.75
839.504	4.75
840.245	5.75
840.985	5.75
841.726	4.75
842.466	5.75
843.206	3.75
843.946	4.75
844.687	2.75
845.427	1.75
846.166	3.75
846.906	3.75
847.646	4.75
848.386	4.75
849.125	5.75
849.865	4.75
850.605	5.75
851.344	6.75
852.083	2.75
852.823	2.75
853.562	2.75
854.301	2.75
855.04	3.75
855.779	4.75
856.518	5.75
857.257	2.75
857.995	3.75
858.734	1.75
859.473	1.75
860.211	1.75
860.95	4.75
861.688	3.75
862.426	2.75
863.165	3.75
863.903	0.75
864.641	1.75
865.379	3.75
866.117	4.75
866.855	3.75
867.593	2.75
868.33	3.75
869.068	1.75
869.806	3.75
870.543	2.75
871.28	2.75
872.018	1.75
872.755	3.75
873.492	2.75
874.229	4.75
874.967	0.75
875.703	2.75
876.44	-0.25
877.177	3.75
877.914	1.75
878.651	1.75
879.387	1.75
880.124	0.75
880.86	0.75
881.597	-1.25
882.333	1.75
883.069	1.75
883.806	1.75
884.542	1.75
885.278	-1.25
886.014	2.75
886.749	-0.25
887.485	0.75
888.221	3.75
888.957	0.75
889.692	0.75
890.428	-0.25
891.163	1.75
891.899	0.75
892.634	-0.25
893.369	2.75
894.104	1.75
894.839	4.75
895.574	0.75
896.309	0.75
897.044	1.75
897.779	1.75
898.514	1.75
899.248	1.75
899.983	1.75
900.717	0.75
901.452	-0.25
902.186	2.75
902.92	-1.25
903.654	1.75
904.389	-0.25
905.123	-0.25
905.857	0.75
906.59	-1.25
907.324	-0.25
908.058	-0.25
908.792	-1.25
909.525	2.75
910.259	0.75
910.992	-0.25
911.726	0.75
912.459	1.75
913.192	1.75
913.925	2.75
914.658	-1.25
915.391	-0.25
916.124	-0.25
916.857	0.75
917.59	1.75
918.323	1.75
919.055	-0.25
919.788	0.75
920.521	-1.25
921.253	-0.25
921.985	0.75
922.718	1.75
923.45	1.75
924.182	0.75
924.914	-0.25
925.646	-0.25
926.378	-1.25
927.11	-0.25
927.841	0.75
928.573	-0.25
929.305	-0.25
930.036	-1.25
930.768	-0.25
931.499	-0.25
932.23	1.75
932.962	-0.25
933.693	2.75
934.424	-0.25
935.155	-1.25
935.886	-0.25
936.617	-0.25
937.348	-0.25
938.078	0.75
938.809	-1.25
939.54	0.75
940.27	1.75
941.001	-0.25
941.731	-0.25
942.461	0.75
943.191	-0.25
943.922	-0.25
944.652	-0.25
945.382	-1.25
946.112	-1.25
946.841	1.75
947.571	-0.25
948.301	-1.25
949.031	0.75
949.76	-0.25
950.49	-0.25
951.219	1.75
951.948	-1.25
952.678	-1.25
953.407	0.75
954.136	-1.25
954.865	0.75
955.594	-0.25
956.323	-2.25
957.052	-2.25
957.78	0.75
958.509	-2.25
959.238	1.75
959.966	0.75
960.695	-0.25
961.423	-0.25
962.151	-0.25
962.88	0.75
963.608	1.75
964.336	-0.25
965.064	0.75
965.792	-0.25
966.52	-1.25
967.247	0.75
967.975	0.75
968.703	1.75
969.43	0.75
970.158	-0.25
970.885	1.75
971.613	-0.25
972.34	-0.25
973.067	0.75
973.794	-0.25
974.521	-0.25
975.248	1.75
975.975	-2.25
976.702	0.75
977.429	-1.25
978.156	0.75
978.882	0.75
979.609	2.75
980.335	0.75
981.062	0.75
981.788	2.75
982.514	-1.25
983.24	-0.25
983.967	2.75
984.693	-2.25
985.419	0.75
986.144	-1.25
986.87	-2.25
987.596	0.75
988.322	-0.25
989.047	0.75
989.773	0.75
990.498	2.75
991.224	-2.25
991.949	-0.25
992.674	1.75
993.399	-1.25
994.124	0.75
994.849	-1.25
995.574	0.75
996.299	-1.25
997.024	1.75
997.749	1.75
998.473	-1.25
999.198	1.75
999.922	-0.25
1000.647	-0.25
1001.371	3.75
1002.095	0.75
1002.82	-3.25
1003.544	-1.25
1004.268	5.75
1004.992	6.75
1005.716	1.75
1006.439	2.75
1007.163	5.75
1007.887	6.75
1008.611	2.75
1009.334	-2.25
1010.058	-0.25
1010.781	-1.25
1011.504	-0.25
1012.228	0.75
1012.951	-0.25
1013.674	0.75
1014.397	-2.25
1015.12	1.75
