节点500_705_QEPB04081__57__20-46-50-282.txt的数据

Date: Wed Nov 12 20:46:50 CST 2025
User: PC
Spectrometer: QEPB0408
触发模式: 0
积分时间 (秒): 1.000000E-2
Scans to average: 1
启用暗噪声校正: true
启用非线性校正: false
滑动平均宽度: 0
X轴模式: Wavelengths
Number of Pixels in Spectrum: 1044
>>>>>Begin Spectral Data<<<<<
220.843	3.38
221.644	6.38
222.444	6.38
223.244	6.38
224.045	7.38
224.845	5.38
225.645	9.38
226.445	8.38
227.245	6.38
228.045	8.38
228.845	8.38
229.645	8.38
230.444	10.38
231.244	8.38
232.043	8.38
232.843	9.38
233.642	10.38
234.442	10.38
235.241	11.38
236.04	9.38
236.839	12.38
237.638	14.38
238.437	10.38
239.236	12.38
240.035	9.38
240.833	14.38
241.632	11.38
242.43	15.38
243.229	13.38
244.027	12.38
244.826	16.38
245.624	15.38
246.422	15.38
247.22	17.38
248.018	15.38
248.816	15.38
249.614	12.38
250.412	19.38
251.21	18.38
252.007	19.38
252.805	17.38
253.602	19.38
254.4	21.38
255.197	22.38
255.994	21.38
256.791	21.38
257.589	20.38
258.386	20.38
259.183	24.38
259.979	24.38
260.776	26.38
261.573	28.38
262.37	26.38
263.166	23.38
263.963	31.38
264.759	28.38
265.556	28.38
266.352	31.38
267.148	27.38
267.944	35.38
268.74	30.38
269.536	33.38
270.332	32.38
271.128	33.38
271.924	36.38
272.719	33.38
273.515	35.38
274.311	33.38
275.106	36.38
275.901	34.38
276.697	34.38
277.492	38.38
278.287	37.38
279.082	37.38
279.877	36.38
280.672	36.38
281.467	34.38
282.262	36.38
283.056	35.38
283.851	37.38
284.646	36.38
285.44	35.38
286.234	37.38
287.029	36.38
287.823	36.38
288.617	33.38
289.411	30.38
290.205	31.38
290.999	37.38
291.793	32.38
292.587	33.38
293.381	30.38
294.174	32.38
294.968	33.38
295.761	31.38
296.555	30.38
297.348	26.38
298.141	26.38
298.935	29.38
299.728	27.38
300.521	27.38
301.314	26.38
302.107	25.38
302.899	23.38
303.692	23.38
304.485	21.38
305.277	23.38
306.07	22.38
306.862	21.38
307.655	23.38
308.447	19.38
309.239	20.38
310.031	20.38
310.823	19.38
311.615	17.38
312.407	18.38
313.199	18.38
313.991	15.38
314.783	17.38
315.574	15.38
316.366	16.38
317.157	15.38
317.949	14.38
318.74	15.38
319.531	14.38
320.322	17.38
321.113	13.38
321.904	15.38
322.695	11.38
323.486	13.38
324.277	16.38
325.068	11.38
325.858	12.38
326.649	14.38
327.439	13.38
328.23	12.38
329.02	14.38
329.81	13.38
330.6	10.38
331.391	13.38
332.181	14.38
332.971	12.38
333.76	13.38
334.55	14.38
335.34	12.38
336.13	11.38
336.919	12.38
337.709	13.38
338.498	12.38
339.287	13.38
340.077	10.38
340.866	14.38
341.655	12.38
342.444	12.38
343.233	11.38
344.022	10.38
344.811	10.38
345.6	13.38
346.388	13.38
347.177	10.38
347.965	11.38
348.754	10.38
349.542	11.38
350.33	13.38
351.119	11.38
351.907	12.38
352.695	11.38
353.483	10.38
354.271	11.38
355.059	12.38
355.846	10.38
356.634	9.38
357.422	12.38
358.209	11.38
358.997	10.38
359.784	13.38
360.571	9.38
361.359	8.38
362.146	10.38
362.933	11.38
363.72	9.38
364.507	10.38
365.294	11.38
366.081	11.38
366.867	9.38
367.654	9.38
368.44	9.38
369.227	11.38
370.013	8.38
370.8	9.38
371.586	9.38
372.372	11.38
373.158	11.38
373.944	8.38
374.73	12.38
375.516	11.38
376.302	12.38
377.088	10.38
377.873	8.38
378.659	11.38
379.445	10.38
380.23	13.38
381.015	11.38
381.801	7.38
382.586	11.38
383.371	9.38
384.156	11.38
384.941	10.38
385.726	12.38
386.511	11.38
387.296	12.38
388.08	11.38
388.865	11.38
389.649	12.38
390.434	14.38
391.218	12.38
392.003	14.38
392.787	11.38
393.571	12.38
394.355	12.38
395.139	12.38
395.923	12.38
396.707	12.38
397.491	13.38
398.274	13.38
399.058	15.38
399.842	13.38
400.625	12.38
401.408	14.38
402.192	14.38
402.975	15.38
403.758	17.38
404.541	15.38
405.324	16.38
406.107	17.38
406.89	15.38
407.673	14.38
408.456	17.38
409.238	15.38
410.021	14.38
410.803	15.38
411.586	20.38
412.368	18.38
413.151	15.38
413.933	16.38
414.715	17.38
415.497	19.38
416.279	20.38
417.061	21.38
417.843	23.38
418.624	18.38
419.406	21.38
420.188	21.38
420.969	22.38
421.751	23.38
422.532	22.38
423.313	22.38
424.095	23.38
424.876	23.38
425.657	27.38
426.438	28.38
427.219	30.38
428	27.38
428.78	33.38
429.561	27.38
430.342	33.38
431.122	29.38
431.903	30.38
432.683	34.38
433.464	37.38
434.244	38.38
435.024	35.38
435.804	45.38
436.584	42.38
437.364	45.38
438.144	47.38
438.924	49.38
439.704	54.38
440.483	55.38
441.263	59.38
442.042	63.38
442.822	68.38
443.601	71.38
444.38	80.38
445.16	82.38
445.939	91.38
446.718	94.38
447.497	109.38
448.276	116.38
449.054	122.38
449.833	134.38
450.612	150.38
451.391	167.38
452.169	188.38
452.948	201.38
453.726	223.38
454.504	246.38
455.282	273.38
456.061	302.38
456.839	336.38
457.617	383.38
458.395	425.38
459.172	475.38
459.95	543.38
460.728	587.38
461.506	659.38
462.283	738.38
463.061	840.38
463.838	929.38
464.615	1042.38
465.393	1155.38
466.17	1295.38
466.947	1451.38
467.724	1608.38
468.501	1803.38
469.278	2010.38
470.055	2207.38
470.831	2446.38
471.608	2747.38
472.385	3047.38
473.161	3362.38
473.938	3695.38
474.714	4067.38
475.49	4507.38
476.266	4949.38
477.043	5452.38
477.819	6006.38
478.595	6577.38
479.371	7233.38
480.146	7944.38
480.922	8728.38
481.698	9552.38
482.473	10457.38
483.249	11426.38
484.024	12466.38
484.8	13545.38
485.575	14730.38
486.35	16042.38
487.126	17480.38
487.901	18956.38
488.676	20522.38
489.451	22244.38
490.225	23934.38
491	25744.38
491.775	27638.38
492.55	29554.38
493.324	31476.38
494.099	33425.38
494.873	35390.38
495.647	37431.38
496.422	39334.38
497.196	41246.38
497.97	42949.38
498.744	44520.38
499.518	46146.38
500.292	47399.38
501.066	48352.38
501.839	49048.38
502.613	49660.38
503.387	50049.38
504.16	50253.38
504.934	50066.38
505.707	49573.38
506.48	48832.38
507.253	48161.38
508.027	47105.38
508.8	45828.38
509.573	44505.38
510.346	43154.38
511.118	41942.38
511.891	40441.38
512.664	38661.38
513.437	37091.38
514.209	35634.38
514.982	34109.38
515.754	32703.38
516.526	31224.38
517.298	30023.38
518.071	28734.38
518.843	27613.38
519.615	26459.38
520.387	25447.38
521.159	24458.38
521.93	23336.38
522.702	22357.38
523.474	21444.38
524.245	20517.38
525.017	19579.38
525.788	18665.38
526.56	17855.38
527.331	17064.38
528.102	16133.38
528.873	15299.38
529.644	14558.38
530.415	13829.38
531.186	13160.38
531.957	12504.38
532.728	11724.38
533.498	11125.38
534.269	10509.38
535.039	9926.38
535.81	9344.38
536.58	8866.38
537.351	8357.38
538.121	7976.38
538.891	7536.38
539.661	7146.38
540.431	6716.38
541.201	6417.38
541.971	6052.38
542.741	5695.38
543.51	5415.38
544.28	5182.38
545.05	4917.38
545.819	4701.38
546.588	4473.38
547.358	4268.38
548.127	4038.38
548.896	3839.38
549.665	3622.38
550.434	3409.38
551.203	3266.38
551.972	3099.38
552.741	2911.38
553.51	2755.38
554.278	2578.38
555.047	2445.38
555.815	2320.38
556.584	2185.38
557.352	2060.38
558.121	1950.38
558.889	1852.38
559.657	1729.38
560.425	1633.38
561.193	1555.38
561.961	1484.38
562.729	1407.38
563.496	1311.38
564.264	1238.38
565.032	1182.38
565.799	1110.38
566.567	1068.38
567.334	1024.38
568.101	931.38
568.869	890.38
569.636	831.38
570.403	799.38
571.17	751.38
571.937	709.38
572.704	669.38
573.471	641.38
574.237	592.38
575.004	551.38
575.771	524.38
576.537	501.38
577.303	475.38
578.07	440.38
578.836	424.38
579.602	390.38
580.368	376.38
581.134	360.38
581.9	341.38
582.666	322.38
583.432	315.38
584.198	292.38
584.964	276.38
585.729	267.38
586.495	251.38
587.26	236.38
588.025	229.38
588.791	215.38
589.556	201.38
590.321	193.38
591.086	186.38
591.851	176.38
592.616	171.38
593.381	161.38
594.146	152.38
594.911	143.38
595.675	141.38
596.44	127.38
597.204	124.38
597.969	122.38
598.733	112.38
599.497	110.38
600.261	106.38
601.025	98.38
601.79	96.38
602.553	95.38
603.317	92.38
604.081	84.38
604.845	81.38
605.609	82.38
606.372	77.38
607.136	72.38
607.899	72.38
608.662	69.38
609.426	66.38
610.189	61.38
610.952	60.38
611.715	59.38
612.478	56.38
613.241	56.38
614.004	53.38
614.767	51.38
615.529	50.38
616.292	47.38
617.055	46.38
617.817	46.38
618.579	42.38
619.342	42.38
620.104	41.38
620.866	39.38
621.628	38.38
622.39	38.38
623.152	38.38
623.914	32.38
624.676	38.38
625.438	31.38
626.199	30.38
626.961	32.38
627.722	32.38
628.484	29.38
629.245	29.38
630.006	27.38
630.768	29.38
631.529	25.38
632.29	27.38
633.051	26.38
633.812	24.38
634.573	23.38
635.333	23.38
636.094	24.38
636.855	23.38
637.615	17.38
638.376	21.38
639.136	22.38
639.896	19.38
640.657	22.38
641.417	20.38
642.177	19.38
642.937	19.38
643.697	18.38
644.457	18.38
645.216	15.38
645.976	17.38
646.736	18.38
647.495	14.38
648.255	15.38
649.014	13.38
649.774	12.38
650.533	15.38
651.292	16.38
652.051	13.38
652.81	11.38
653.569	13.38
654.328	15.38
655.087	11.38
655.846	12.38
656.604	13.38
657.363	12.38
658.121	11.38
658.88	11.38
659.638	13.38
660.397	12.38
661.155	11.38
661.913	12.38
662.671	11.38
663.429	13.38
664.187	12.38
664.945	13.38
665.703	12.38
666.46	12.38
667.218	8.38
667.976	10.38
668.733	10.38
669.49	10.38
670.248	9.38
671.005	11.38
671.762	11.38
672.519	9.38
673.276	8.38
674.033	7.38
674.79	9.38
675.547	9.38
676.304	10.38
677.06	11.38
677.817	10.38
678.574	8.38
679.33	10.38
680.086	8.38
680.843	10.38
681.599	5.38
682.355	8.38
683.111	6.38
683.867	9.38
684.623	6.38
685.379	7.38
686.135	10.38
686.89	6.38
687.646	9.38
688.402	8.38
689.157	8.38
689.912	9.38
690.668	9.38
691.423	9.38
692.178	7.38
692.933	9.38
693.688	8.38
694.443	5.38
695.198	7.38
695.953	8.38
696.708	10.38
697.462	9.38
698.217	8.38
698.972	6.38
699.726	6.38
700.48	7.38
701.235	7.38
701.989	7.38
702.743	9.38
703.497	6.38
704.251	8.38
705.005	7.38
705.759	8.38
706.513	8.38
707.266	5.38
708.02	10.38
708.774	8.38
709.527	9.38
710.28	8.38
711.034	8.38
711.787	8.38
712.54	8.38
713.293	9.38
714.046	8.38
714.799	7.38
715.552	6.38
716.305	8.38
717.058	9.38
717.81	8.38
718.563	9.38
719.315	8.38
720.068	8.38
720.82	7.38
721.573	10.38
722.325	8.38
723.077	10.38
723.829	6.38
724.581	9.38
725.333	9.38
726.085	8.38
726.836	9.38
727.588	9.38
728.34	9.38
729.091	7.38
729.843	7.38
730.594	8.38
731.346	8.38
732.097	8.38
732.848	10.38
733.599	8.38
734.35	8.38
735.101	9.38
735.852	10.38
736.603	10.38
737.354	9.38
738.104	8.38
738.855	13.38
739.605	10.38
740.356	9.38
741.106	12.38
741.856	11.38
742.607	13.38
743.357	11.38
744.107	9.38
744.857	11.38
745.607	12.38
746.357	10.38
747.106	12.38
747.856	12.38
748.606	11.38
749.355	10.38
750.105	14.38
750.854	9.38
751.603	12.38
752.353	10.38
753.102	11.38
753.851	11.38
754.6	13.38
755.349	11.38
756.098	15.38
756.847	11.38
757.595	12.38
758.344	14.38
759.093	12.38
759.841	15.38
760.589	15.38
761.338	17.38
762.086	15.38
762.834	14.38
763.582	14.38
764.331	13.38
765.079	15.38
765.826	13.38
766.574	15.38
767.322	16.38
768.07	14.38
768.817	17.38
769.565	15.38
770.312	18.38
771.06	18.38
771.807	15.38
772.554	17.38
773.302	17.38
774.049	18.38
774.796	14.38
775.543	17.38
776.29	18.38
777.036	16.38
777.783	16.38
778.53	17.38
779.276	18.38
780.023	15.38
780.769	16.38
781.516	15.38
782.262	18.38
783.008	17.38
783.754	17.38
784.5	16.38
785.246	17.38
785.992	14.38
786.738	15.38
787.484	17.38
788.23	16.38
788.975	16.38
789.721	15.38
790.466	16.38
791.212	12.38
791.957	14.38
792.702	16.38
793.447	16.38
794.193	15.38
794.938	14.38
795.683	17.38
796.427	15.38
797.172	14.38
797.917	16.38
798.662	13.38
799.406	13.38
800.151	13.38
800.895	15.38
801.64	12.38
802.384	15.38
803.128	9.38
803.872	12.38
804.616	13.38
805.36	13.38
806.104	11.38
806.848	12.38
807.592	11.38
808.336	11.38
809.079	11.38
809.823	11.38
810.566	10.38
811.31	10.38
812.053	9.38
812.796	10.38
813.539	9.38
814.283	7.38
815.026	8.38
815.769	9.38
816.511	9.38
817.254	6.38
817.997	8.38
818.74	7.38
819.482	8.38
820.225	9.38
820.967	7.38
821.71	9.38
822.452	8.38
823.194	6.38
823.936	9.38
824.678	6.38
825.42	8.38
826.162	5.38
826.904	7.38
827.646	9.38
828.388	6.38
829.129	7.38
829.871	6.38
830.612	5.38
831.354	7.38
832.095	4.38
832.836	6.38
833.577	8.38
834.319	6.38
835.06	8.38
835.801	5.38
836.542	6.38
837.282	7.38
838.023	7.38
838.764	6.38
839.504	6.38
840.245	7.38
840.985	5.38
841.726	6.38
842.466	4.38
843.206	3.38
843.946	7.38
844.687	6.38
845.427	4.38
846.166	5.38
846.906	6.38
847.646	6.38
848.386	5.38
849.125	3.38
849.865	6.38
850.605	6.38
851.344	5.38
852.083	1.38
852.823	4.38
853.562	5.38
854.301	6.38
855.04	4.38
855.779	2.38
856.518	2.38
857.257	3.38
857.995	3.38
858.734	5.38
859.473	6.38
860.211	4.38
860.95	1.38
861.688	5.38
862.426	6.38
863.165	1.38
863.903	4.38
864.641	2.38
865.379	2.38
866.117	2.38
866.855	3.38
867.593	1.38
868.33	2.38
869.068	3.38
869.806	5.38
870.543	-0.62
871.28	4.38
872.018	3.38
872.755	1.38
873.492	2.38
874.229	2.38
874.967	4.38
875.703	1.38
876.44	1.38
877.177	1.38
877.914	2.38
878.651	2.38
879.387	1.38
880.124	1.38
880.86	2.38
881.597	3.38
882.333	1.38
883.069	-0.62
883.806	2.38
884.542	1.38
885.278	3.38
886.014	2.38
886.749	1.38
887.485	2.38
888.221	0.38
888.957	1.38
889.692	0.38
890.428	2.38
891.163	2.38
891.899	0.38
892.634	2.38
893.369	-0.62
894.104	1.38
894.839	1.38
895.574	2.38
896.309	1.38
897.044	2.38
897.779	-0.62
898.514	-0.62
899.248	1.38
899.983	-0.62
900.717	0.38
901.452	1.38
902.186	0.38
902.92	1.38
903.654	0.38
904.389	2.38
905.123	1.38
905.857	2.38
906.59	-0.62
907.324	1.38
908.058	-1.62
908.792	-0.62
909.525	2.38
910.259	0.38
910.992	1.38
911.726	2.38
912.459	1.38
913.192	0.38
913.925	2.38
914.658	1.38
915.391	1.38
916.124	-0.62
916.857	1.38
917.59	2.38
918.323	1.38
919.055	3.38
919.788	-0.62
920.521	2.38
921.253	-0.62
921.985	1.38
922.718	0.38
923.45	1.38
924.182	1.38
924.914	1.38
925.646	1.38
926.378	4.38
927.11	2.38
927.841	2.38
928.573	-0.62
929.305	0.38
930.036	0.38
930.768	2.38
931.499	-0.62
932.23	2.38
932.962	1.38
933.693	1.38
934.424	-0.62
935.155	-0.62
935.886	2.38
936.617	0.38
937.348	1.38
938.078	0.38
938.809	0.38
939.54	2.38
940.27	0.38
941.001	2.38
941.731	1.38
942.461	1.38
943.191	1.38
943.922	2.38
944.652	1.38
945.382	0.38
946.112	3.38
946.841	2.38
947.571	1.38
948.301	2.38
949.031	-0.62
949.76	1.38
950.49	3.38
951.219	1.38
951.948	-0.62
952.678	0.38
953.407	0.38
954.136	-0.62
954.865	2.38
955.594	1.38
956.323	-0.62
957.052	0.38
957.78	0.38
958.509	1.38
959.238	-0.62
959.966	2.38
960.695	-0.62
961.423	-0.62
962.151	1.38
962.88	2.38
963.608	1.38
964.336	-0.62
965.064	-0.62
965.792	1.38
966.52	3.38
967.247	2.38
967.975	-0.62
968.703	-0.62
969.43	-0.62
970.158	1.38
970.885	1.38
971.613	1.38
972.34	-0.62
973.067	0.38
973.794	1.38
974.521	1.38
975.248	2.38
975.975	0.38
976.702	-0.62
977.429	2.38
978.156	0.38
978.882	-0.62
979.609	-0.62
980.335	-0.62
981.062	0.38
981.788	0.38
982.514	-0.62
983.24	-0.62
983.967	0.38
984.693	2.38
985.419	0.38
986.144	1.38
986.87	-0.62
987.596	2.38
988.322	1.38
989.047	3.38
989.773	2.38
990.498	1.38
991.224	2.38
991.949	0.38
992.674	0.38
993.399	-0.62
994.124	0.38
994.849	-0.62
995.574	0.38
996.299	1.38
997.024	-0.62
997.749	-0.62
998.473	0.38
999.198	0.38
999.922	0.38
1000.647	1.38
1001.371	4.38
1002.095	-1.62
1002.82	-0.62
1003.544	-0.62
1004.268	5.38
1004.992	4.38
1005.716	4.38
1006.439	3.38
1007.163	6.38
1007.887	5.38
1008.611	3.38
1009.334	1.38
1010.058	-0.62
1010.781	-0.62
1011.504	-0.62
1012.228	0.38
1012.951	2.38
1013.674	-0.62
1014.397	-2.62
1015.12	-0.62
