节点500_705_QEPB04081__373__20-51-14-601.txt的数据

Date: Wed Nov 12 20:51:14 CST 2025
User: PC
Spectrometer: QEPB0408
触发模式: 0
积分时间 (秒): 1.000000E-2
Scans to average: 1
启用暗噪声校正: true
启用非线性校正: false
滑动平均宽度: 0
X轴模式: Wavelengths
Number of Pixels in Spectrum: 1044
>>>>>Begin Spectral Data<<<<<
220.843	6.25
221.644	4.25
222.444	6.25
223.244	4.25
224.045	4.25
224.845	6.25
225.645	7.25
226.445	7.25
227.245	7.25
228.045	8.25
228.845	6.25
229.645	6.25
230.444	10.25
231.244	10.25
232.043	9.25
232.843	8.25
233.642	9.25
234.442	10.25
235.241	10.25
236.04	9.25
236.839	11.25
237.638	11.25
238.437	12.25
239.236	10.25
240.035	15.25
240.833	13.25
241.632	11.25
242.43	12.25
243.229	11.25
244.027	14.25
244.826	12.25
245.624	10.25
246.422	16.25
247.22	15.25
248.018	15.25
248.816	14.25
249.614	17.25
250.412	15.25
251.21	17.25
252.007	18.25
252.805	16.25
253.602	19.25
254.4	18.25
255.197	17.25
255.994	21.25
256.791	19.25
257.589	22.25
258.386	19.25
259.183	21.25
259.979	21.25
260.776	22.25
261.573	25.25
262.37	25.25
263.166	26.25
263.963	23.25
264.759	24.25
265.556	27.25
266.352	28.25
267.148	30.25
267.944	26.25
268.74	26.25
269.536	30.25
270.332	31.25
271.128	32.25
271.924	28.25
272.719	31.25
273.515	32.25
274.311	34.25
275.106	32.25
275.901	30.25
276.697	33.25
277.492	32.25
278.287	34.25
279.082	32.25
279.877	33.25
280.672	33.25
281.467	34.25
282.262	34.25
283.056	34.25
283.851	31.25
284.646	34.25
285.44	33.25
286.234	34.25
287.029	31.25
287.823	34.25
288.617	33.25
289.411	33.25
290.205	32.25
290.999	33.25
291.793	31.25
292.587	29.25
293.381	30.25
294.174	28.25
294.968	31.25
295.761	28.25
296.555	25.25
297.348	31.25
298.141	25.25
298.935	27.25
299.728	26.25
300.521	22.25
301.314	25.25
302.107	24.25
302.899	24.25
303.692	23.25
304.485	21.25
305.277	24.25
306.07	22.25
306.862	24.25
307.655	24.25
308.447	22.25
309.239	23.25
310.031	19.25
310.823	21.25
311.615	19.25
312.407	18.25
313.199	15.25
313.991	18.25
314.783	18.25
315.574	14.25
316.366	16.25
317.157	16.25
317.949	15.25
318.74	14.25
319.531	14.25
320.322	14.25
321.113	15.25
321.904	13.25
322.695	14.25
323.486	12.25
324.277	14.25
325.068	10.25
325.858	15.25
326.649	12.25
327.439	12.25
328.23	11.25
329.02	10.25
329.81	14.25
330.6	12.25
331.391	13.25
332.181	11.25
332.971	12.25
333.76	11.25
334.55	11.25
335.34	13.25
336.13	13.25
336.919	12.25
337.709	11.25
338.498	10.25
339.287	13.25
340.077	13.25
340.866	11.25
341.655	11.25
342.444	13.25
343.233	13.25
344.022	13.25
344.811	11.25
345.6	9.25
346.388	12.25
347.177	10.25
347.965	11.25
348.754	7.25
349.542	10.25
350.33	11.25
351.119	11.25
351.907	11.25
352.695	11.25
353.483	10.25
354.271	11.25
355.059	9.25
355.846	12.25
356.634	11.25
357.422	11.25
358.209	12.25
358.997	10.25
359.784	11.25
360.571	13.25
361.359	11.25
362.146	9.25
362.933	8.25
363.72	9.25
364.507	8.25
365.294	9.25
366.081	8.25
366.867	10.25
367.654	10.25
368.44	9.25
369.227	10.25
370.013	10.25
370.8	13.25
371.586	11.25
372.372	8.25
373.158	11.25
373.944	8.25
374.73	11.25
375.516	11.25
376.302	11.25
377.088	10.25
377.873	7.25
378.659	12.25
379.445	8.25
380.23	13.25
381.015	9.25
381.801	9.25
382.586	10.25
383.371	9.25
384.156	10.25
384.941	9.25
385.726	11.25
386.511	11.25
387.296	9.25
388.08	9.25
388.865	13.25
389.649	11.25
390.434	12.25
391.218	9.25
392.003	11.25
392.787	17.25
393.571	11.25
394.355	13.25
395.139	12.25
395.923	11.25
396.707	9.25
397.491	14.25
398.274	12.25
399.058	15.25
399.842	13.25
400.625	12.25
401.408	15.25
402.192	12.25
402.975	15.25
403.758	15.25
404.541	17.25
405.324	13.25
406.107	12.25
406.89	16.25
407.673	15.25
408.456	19.25
409.238	15.25
410.021	18.25
410.803	15.25
411.586	17.25
412.368	18.25
413.151	19.25
413.933	17.25
414.715	19.25
415.497	19.25
416.279	19.25
417.061	18.25
417.843	17.25
418.624	17.25
419.406	20.25
420.188	22.25
420.969	19.25
421.751	23.25
422.532	23.25
423.313	23.25
424.095	23.25
424.876	24.25
425.657	27.25
426.438	27.25
427.219	27.25
428	27.25
428.78	26.25
429.561	27.25
430.342	27.25
431.122	30.25
431.903	31.25
432.683	32.25
433.464	35.25
434.244	40.25
435.024	37.25
435.804	39.25
436.584	41.25
437.364	46.25
438.144	53.25
438.924	48.25
439.704	51.25
440.483	58.25
441.263	60.25
442.042	66.25
442.822	71.25
443.601	75.25
444.38	78.25
445.16	83.25
445.939	95.25
446.718	105.25
447.497	111.25
448.276	126.25
449.054	132.25
449.833	151.25
450.612	165.25
451.391	181.25
452.169	201.25
452.948	223.25
453.726	234.25
454.504	263.25
455.282	299.25
456.061	332.25
456.839	376.25
457.617	418.25
458.395	455.25
459.172	520.25
459.95	575.25
460.728	644.25
461.506	719.25
462.283	796.25
463.061	887.25
463.838	996.25
464.615	1113.25
465.393	1215.25
466.17	1362.25
466.947	1513.25
467.724	1677.25
468.501	1849.25
469.278	2041.25
470.055	2276.25
470.831	2504.25
471.608	2779.25
472.385	3032.25
473.161	3363.25
473.938	3690.25
474.714	4012.25
475.49	4441.25
476.266	4870.25
477.043	5328.25
477.819	5821.25
478.595	6329.25
479.371	6918.25
480.146	7555.25
480.922	8243.25
481.698	8964.25
482.473	9727.25
483.249	10586.25
484.024	11489.25
484.8	12453.25
485.575	13451.25
486.35	14627.25
487.126	15820.25
487.901	17037.25
488.676	18402.25
489.451	19833.25
490.225	21350.25
491	22907.25
491.775	24484.25
492.55	26092.25
493.324	27861.25
494.099	29564.25
494.873	31430.25
495.647	33111.25
496.422	34940.25
497.196	36664.25
497.97	38297.25
498.744	39748.25
499.518	41366.25
500.292	42799.25
501.066	43791.25
501.839	44737.25
502.613	45564.25
503.387	46137.25
504.16	46586.25
504.934	46754.25
505.707	46845.25
506.48	46472.25
507.253	46010.25
508.027	45413.25
508.8	44483.25
509.573	43476.25
510.346	42580.25
511.118	41502.25
511.891	40257.25
512.664	38797.25
513.437	37337.25
514.209	35999.25
514.982	34606.25
515.754	33245.25
516.526	31928.25
517.298	30662.25
518.071	29407.25
518.843	28253.25
519.615	27115.25
520.387	26039.25
521.159	25040.25
521.93	23966.25
522.702	22960.25
523.474	22005.25
524.245	21109.25
525.017	20263.25
525.788	19333.25
526.56	18503.25
527.331	17737.25
528.102	16804.25
528.873	15971.25
529.644	15311.25
530.415	14501.25
531.186	13854.25
531.957	13091.25
532.728	12440.25
533.498	11806.25
534.269	11171.25
535.039	10607.25
535.81	10020.25
536.58	9455.25
537.351	8930.25
538.121	8461.25
538.891	8018.25
539.661	7594.25
540.431	7199.25
541.201	6823.25
541.971	6469.25
542.741	6122.25
543.51	5794.25
544.28	5535.25
545.05	5265.25
545.819	5017.25
546.588	4787.25
547.358	4562.25
548.127	4344.25
548.896	4107.25
549.665	3893.25
550.434	3711.25
551.203	3492.25
551.972	3333.25
552.741	3139.25
553.51	2965.25
554.278	2811.25
555.047	2641.25
555.815	2518.25
556.584	2384.25
557.352	2232.25
558.121	2114.25
558.889	2000.25
559.657	1895.25
560.425	1784.25
561.193	1697.25
561.961	1595.25
562.729	1528.25
563.496	1444.25
564.264	1335.25
565.032	1282.25
565.799	1223.25
566.567	1149.25
567.334	1083.25
568.101	1025.25
568.869	964.25
569.636	919.25
570.403	858.25
571.17	803.25
571.937	761.25
572.704	719.25
573.471	690.25
574.237	648.25
575.004	607.25
575.771	573.25
576.537	552.25
577.303	516.25
578.07	481.25
578.836	451.25
579.602	431.25
580.368	401.25
581.134	396.25
581.9	369.25
582.666	359.25
583.432	334.25
584.198	319.25
584.964	299.25
585.729	292.25
586.495	272.25
587.26	255.25
588.025	242.25
588.791	226.25
589.556	220.25
590.321	211.25
591.086	204.25
591.851	187.25
592.616	178.25
593.381	167.25
594.146	165.25
594.911	153.25
595.675	153.25
596.44	147.25
597.204	132.25
597.969	128.25
598.733	124.25
599.497	118.25
600.261	113.25
601.025	108.25
601.79	103.25
602.553	95.25
603.317	93.25
604.081	95.25
604.845	88.25
605.609	85.25
606.372	79.25
607.136	77.25
607.899	74.25
608.662	71.25
609.426	74.25
610.189	73.25
610.952	67.25
611.715	62.25
612.478	62.25
613.241	58.25
614.004	57.25
614.767	56.25
615.529	53.25
616.292	51.25
617.055	49.25
617.817	47.25
618.579	45.25
619.342	44.25
620.104	42.25
620.866	43.25
621.628	39.25
622.39	38.25
623.152	35.25
623.914	36.25
624.676	33.25
625.438	33.25
626.199	33.25
626.961	32.25
627.722	32.25
628.484	30.25
629.245	28.25
630.006	26.25
630.768	29.25
631.529	28.25
632.29	26.25
633.051	23.25
633.812	25.25
634.573	24.25
635.333	23.25
636.094	21.25
636.855	21.25
637.615	22.25
638.376	21.25
639.136	22.25
639.896	19.25
640.657	17.25
641.417	20.25
642.177	19.25
642.937	17.25
643.697	19.25
644.457	17.25
645.216	20.25
645.976	19.25
646.736	18.25
647.495	13.25
648.255	15.25
649.014	15.25
649.774	13.25
650.533	14.25
651.292	14.25
652.051	13.25
652.81	14.25
653.569	14.25
654.328	13.25
655.087	12.25
655.846	11.25
656.604	15.25
657.363	12.25
658.121	13.25
658.88	12.25
659.638	14.25
660.397	11.25
661.155	14.25
661.913	12.25
662.671	9.25
663.429	11.25
664.187	11.25
664.945	10.25
665.703	10.25
666.46	11.25
667.218	10.25
667.976	9.25
668.733	10.25
669.49	9.25
670.248	9.25
671.005	10.25
671.762	9.25
672.519	10.25
673.276	11.25
674.033	11.25
674.79	9.25
675.547	9.25
676.304	9.25
677.06	10.25
677.817	10.25
678.574	9.25
679.33	9.25
680.086	11.25
680.843	8.25
681.599	8.25
682.355	8.25
683.111	9.25
683.867	8.25
684.623	6.25
685.379	8.25
686.135	9.25
686.89	9.25
687.646	8.25
688.402	7.25
689.157	7.25
689.912	6.25
690.668	10.25
691.423	8.25
692.178	8.25
692.933	8.25
693.688	5.25
694.443	7.25
695.198	9.25
695.953	10.25
696.708	8.25
697.462	6.25
698.217	7.25
698.972	9.25
699.726	10.25
700.48	7.25
701.235	8.25
701.989	8.25
702.743	8.25
703.497	8.25
704.251	5.25
705.005	6.25
705.759	9.25
706.513	9.25
707.266	7.25
708.02	7.25
708.774	8.25
709.527	8.25
710.28	7.25
711.034	8.25
711.787	10.25
712.54	6.25
713.293	6.25
714.046	9.25
714.799	7.25
715.552	8.25
716.305	8.25
717.058	5.25
717.81	9.25
718.563	9.25
719.315	8.25
720.068	7.25
720.82	8.25
721.573	8.25
722.325	6.25
723.077	8.25
723.829	7.25
724.581	8.25
725.333	8.25
726.085	10.25
726.836	10.25
727.588	6.25
728.34	10.25
729.091	10.25
729.843	8.25
730.594	10.25
731.346	9.25
732.097	10.25
732.848	9.25
733.599	10.25
734.35	10.25
735.101	11.25
735.852	11.25
736.603	10.25
737.354	9.25
738.104	9.25
738.855	7.25
739.605	10.25
740.356	11.25
741.106	7.25
741.856	12.25
742.607	12.25
743.357	10.25
744.107	10.25
744.857	11.25
745.607	10.25
746.357	9.25
747.106	12.25
747.856	9.25
748.606	8.25
749.355	11.25
750.105	11.25
750.854	9.25
751.603	11.25
752.353	10.25
753.102	12.25
753.851	10.25
754.6	10.25
755.349	13.25
756.098	11.25
756.847	11.25
757.595	11.25
758.344	12.25
759.093	12.25
759.841	11.25
760.589	12.25
761.338	14.25
762.086	13.25
762.834	11.25
763.582	12.25
764.331	12.25
765.079	11.25
765.826	13.25
766.574	15.25
767.322	14.25
768.07	10.25
768.817	13.25
769.565	14.25
770.312	13.25
771.06	15.25
771.807	14.25
772.554	15.25
773.302	15.25
774.049	15.25
774.796	13.25
775.543	15.25
776.29	16.25
777.036	17.25
777.783	16.25
778.53	15.25
779.276	13.25
780.023	19.25
780.769	15.25
781.516	15.25
782.262	17.25
783.008	14.25
783.754	15.25
784.5	15.25
785.246	17.25
785.992	17.25
786.738	18.25
787.484	15.25
788.23	15.25
788.975	14.25
789.721	17.25
790.466	14.25
791.212	15.25
791.957	13.25
792.702	14.25
793.447	13.25
794.193	13.25
794.938	14.25
795.683	14.25
796.427	14.25
797.172	11.25
797.917	15.25
798.662	13.25
799.406	12.25
800.151	14.25
800.895	10.25
801.64	12.25
802.384	12.25
803.128	12.25
803.872	10.25
804.616	11.25
805.36	12.25
806.104	9.25
806.848	12.25
807.592	11.25
808.336	10.25
809.079	11.25
809.823	8.25
810.566	10.25
811.31	9.25
812.053	9.25
812.796	10.25
813.539	11.25
814.283	11.25
815.026	6.25
815.769	10.25
816.511	8.25
817.254	10.25
817.997	9.25
818.74	6.25
819.482	7.25
820.225	10.25
820.967	6.25
821.71	8.25
822.452	7.25
823.194	8.25
823.936	7.25
824.678	9.25
825.42	4.25
826.162	8.25
826.904	9.25
827.646	6.25
828.388	8.25
829.129	6.25
829.871	9.25
830.612	5.25
831.354	6.25
832.095	5.25
832.836	5.25
833.577	6.25
834.319	5.25
835.06	8.25
835.801	6.25
836.542	5.25
837.282	5.25
838.023	6.25
838.764	6.25
839.504	7.25
840.245	6.25
840.985	8.25
841.726	6.25
842.466	9.25
843.206	4.25
843.946	5.25
844.687	4.25
845.427	4.25
846.166	5.25
846.906	3.25
847.646	4.25
848.386	3.25
849.125	3.25
849.865	5.25
850.605	4.25
851.344	4.25
852.083	4.25
852.823	5.25
853.562	4.25
854.301	6.25
855.04	3.25
855.779	3.25
856.518	3.25
857.257	3.25
857.995	3.25
858.734	3.25
859.473	3.25
860.211	4.25
860.95	3.25
861.688	2.25
862.426	2.25
863.165	3.25
863.903	3.25
864.641	4.25
865.379	4.25
866.117	3.25
866.855	3.25
867.593	3.25
868.33	3.25
869.068	3.25
869.806	0.25
870.543	1.25
871.28	1.25
872.018	1.25
872.755	3.25
873.492	2.25
874.229	3.25
874.967	3.25
875.703	2.25
876.44	3.25
877.177	2.25
877.914	4.25
878.651	1.25
879.387	1.25
880.124	4.25
880.86	1.25
881.597	3.25
882.333	1.25
883.069	3.25
883.806	1.25
884.542	2.25
885.278	0.25
886.014	2.25
886.749	1.25
887.485	2.25
888.221	2.25
888.957	2.25
889.692	0.25
890.428	3.25
891.163	1.25
891.899	0.25
892.634	-0.75
893.369	3.25
894.104	3.25
894.839	-0.75
895.574	2.25
896.309	0.25
897.044	2.25
897.779	4.25
898.514	2.25
899.248	2.25
899.983	0.25
900.717	1.25
901.452	-0.75
902.186	0.25
902.92	1.25
903.654	0.25
904.389	2.25
905.123	3.25
905.857	2.25
906.59	1.25
907.324	1.25
908.058	0.25
908.792	1.25
909.525	1.25
910.259	2.25
910.992	0.25
911.726	1.25
912.459	0.25
913.192	1.25
913.925	2.25
914.658	-0.75
915.391	-0.75
916.124	1.25
916.857	0.25
917.59	1.25
918.323	1.25
919.055	0.25
919.788	1.25
920.521	1.25
921.253	0.25
921.985	1.25
922.718	0.25
923.45	2.25
924.182	-2.75
924.914	2.25
925.646	0.25
926.378	1.25
927.11	0.25
927.841	0.25
928.573	1.25
929.305	2.25
930.036	1.25
930.768	0.25
931.499	3.25
932.23	-1.75
932.962	1.25
933.693	2.25
934.424	-0.75
935.155	2.25
935.886	1.25
936.617	-1.75
937.348	2.25
938.078	2.25
938.809	0.25
939.54	1.25
940.27	1.25
941.001	2.25
941.731	0.25
942.461	0.25
943.191	0.25
943.922	0.25
944.652	-0.75
945.382	-0.75
946.112	0.25
946.841	0.25
947.571	-1.75
948.301	0.25
949.031	-0.75
949.76	0.25
950.49	-0.75
951.219	2.25
951.948	-0.75
952.678	1.25
953.407	-0.75
954.136	0.25
954.865	0.25
955.594	-0.75
956.323	1.25
957.052	-0.75
957.78	1.25
958.509	2.25
959.238	0.25
959.966	2.25
960.695	-0.75
961.423	3.25
962.151	-0.75
962.88	0.25
963.608	1.25
964.336	0.25
965.064	0.25
965.792	1.25
966.52	0.25
967.247	1.25
967.975	-1.75
968.703	2.25
969.43	0.25
970.158	0.25
970.885	-0.75
971.613	-0.75
972.34	2.25
973.067	2.25
973.794	-0.75
974.521	2.25
975.248	-0.75
975.975	1.25
976.702	1.25
977.429	-0.75
978.156	-1.75
978.882	3.25
979.609	0.25
980.335	-0.75
981.062	0.25
981.788	0.25
982.514	1.25
983.24	2.25
983.967	1.25
984.693	-0.75
985.419	0.25
986.144	0.25
986.87	2.25
987.596	3.25
988.322	-0.75
989.047	-1.75
989.773	1.25
990.498	1.25
991.224	3.25
991.949	1.25
992.674	1.25
993.399	1.25
994.124	-0.75
994.849	1.25
995.574	0.25
996.299	1.25
997.024	2.25
997.749	-1.75
998.473	0.25
999.198	0.25
999.922	2.25
1000.647	3.25
1001.371	2.25
1002.095	-1.75
1002.82	0.25
1003.544	-1.75
1004.268	5.25
1004.992	3.25
1005.716	6.25
1006.439	4.25
1007.163	4.25
1007.887	5.25
1008.611	1.25
1009.334	3.25
1010.058	-0.75
1010.781	0.25
1011.504	-0.75
1012.228	2.25
1012.951	-0.75
1013.674	-0.75
1014.397	2.25
1015.12	0.25
