节点500_705_QEPB04081__169__20-48-40-025.txt的数据

Date: Wed Nov 12 20:48:40 CST 2025
User: PC
Spectrometer: QEPB0408
触发模式: 0
积分时间 (秒): 1.000000E-2
Scans to average: 1
启用暗噪声校正: true
启用非线性校正: false
滑动平均宽度: 0
X轴模式: Wavelengths
Number of Pixels in Spectrum: 1044
>>>>>Begin Spectral Data<<<<<
220.843	8.38
221.644	4.38
222.444	6.38
223.244	6.38
224.045	7.38
224.845	7.38
225.645	8.38
226.445	7.38
227.245	8.38
228.045	6.38
228.845	7.38
229.645	7.38
230.444	11.38
231.244	10.38
232.043	10.38
232.843	7.38
233.642	8.38
234.442	11.38
235.241	13.38
236.04	12.38
236.839	12.38
237.638	11.38
238.437	13.38
239.236	11.38
240.035	10.38
240.833	13.38
241.632	12.38
242.43	15.38
243.229	14.38
244.027	13.38
244.826	14.38
245.624	15.38
246.422	17.38
247.22	12.38
248.018	15.38
248.816	15.38
249.614	15.38
250.412	17.38
251.21	17.38
252.007	19.38
252.805	20.38
253.602	19.38
254.4	17.38
255.197	20.38
255.994	21.38
256.791	17.38
257.589	24.38
258.386	22.38
259.183	24.38
259.979	25.38
260.776	23.38
261.573	27.38
262.37	22.38
263.166	26.38
263.963	27.38
264.759	26.38
265.556	29.38
266.352	29.38
267.148	28.38
267.944	28.38
268.74	30.38
269.536	28.38
270.332	32.38
271.128	34.38
271.924	35.38
272.719	35.38
273.515	38.38
274.311	32.38
275.106	35.38
275.901	38.38
276.697	37.38
277.492	35.38
278.287	36.38
279.082	34.38
279.877	33.38
280.672	35.38
281.467	35.38
282.262	35.38
283.056	36.38
283.851	34.38
284.646	38.38
285.44	36.38
286.234	34.38
287.029	34.38
287.823	39.38
288.617	33.38
289.411	31.38
290.205	34.38
290.999	31.38
291.793	33.38
292.587	33.38
293.381	31.38
294.174	30.38
294.968	28.38
295.761	29.38
296.555	27.38
297.348	30.38
298.141	24.38
298.935	28.38
299.728	25.38
300.521	24.38
301.314	26.38
302.107	26.38
302.899	23.38
303.692	22.38
304.485	24.38
305.277	25.38
306.07	25.38
306.862	24.38
307.655	20.38
308.447	21.38
309.239	22.38
310.031	19.38
310.823	18.38
311.615	19.38
312.407	18.38
313.199	18.38
313.991	19.38
314.783	17.38
315.574	20.38
316.366	17.38
317.157	16.38
317.949	16.38
318.74	15.38
319.531	14.38
320.322	18.38
321.113	13.38
321.904	13.38
322.695	12.38
323.486	10.38
324.277	15.38
325.068	11.38
325.858	13.38
326.649	13.38
327.439	12.38
328.23	12.38
329.02	11.38
329.81	15.38
330.6	14.38
331.391	13.38
332.181	15.38
332.971	12.38
333.76	11.38
334.55	11.38
335.34	11.38
336.13	13.38
336.919	15.38
337.709	9.38
338.498	12.38
339.287	11.38
340.077	14.38
340.866	13.38
341.655	13.38
342.444	12.38
343.233	11.38
344.022	11.38
344.811	11.38
345.6	11.38
346.388	14.38
347.177	13.38
347.965	11.38
348.754	11.38
349.542	12.38
350.33	12.38
351.119	12.38
351.907	12.38
352.695	13.38
353.483	10.38
354.271	10.38
355.059	11.38
355.846	11.38
356.634	13.38
357.422	10.38
358.209	11.38
358.997	11.38
359.784	10.38
360.571	11.38
361.359	10.38
362.146	9.38
362.933	10.38
363.72	10.38
364.507	13.38
365.294	12.38
366.081	12.38
366.867	9.38
367.654	10.38
368.44	9.38
369.227	12.38
370.013	12.38
370.8	11.38
371.586	10.38
372.372	9.38
373.158	10.38
373.944	10.38
374.73	11.38
375.516	10.38
376.302	11.38
377.088	11.38
377.873	7.38
378.659	11.38
379.445	10.38
380.23	8.38
381.015	11.38
381.801	10.38
382.586	11.38
383.371	9.38
384.156	11.38
384.941	10.38
385.726	10.38
386.511	11.38
387.296	12.38
388.08	11.38
388.865	13.38
389.649	15.38
390.434	11.38
391.218	11.38
392.003	13.38
392.787	11.38
393.571	10.38
394.355	14.38
395.139	13.38
395.923	13.38
396.707	15.38
397.491	12.38
398.274	14.38
399.058	15.38
399.842	12.38
400.625	15.38
401.408	17.38
402.192	15.38
402.975	15.38
403.758	14.38
404.541	14.38
405.324	14.38
406.107	18.38
406.89	13.38
407.673	11.38
408.456	18.38
409.238	16.38
410.021	17.38
410.803	19.38
411.586	16.38
412.368	20.38
413.151	18.38
413.933	19.38
414.715	20.38
415.497	19.38
416.279	19.38
417.061	22.38
417.843	23.38
418.624	17.38
419.406	22.38
420.188	18.38
420.969	21.38
421.751	23.38
422.532	22.38
423.313	21.38
424.095	26.38
424.876	25.38
425.657	27.38
426.438	26.38
427.219	27.38
428	26.38
428.78	27.38
429.561	31.38
430.342	31.38
431.122	33.38
431.903	34.38
432.683	34.38
433.464	37.38
434.244	40.38
435.024	39.38
435.804	41.38
436.584	41.38
437.364	43.38
438.144	45.38
438.924	47.38
439.704	54.38
440.483	55.38
441.263	60.38
442.042	66.38
442.822	69.38
443.601	71.38
444.38	78.38
445.16	88.38
445.939	87.38
446.718	98.38
447.497	109.38
448.276	118.38
449.054	129.38
449.833	142.38
450.612	159.38
451.391	168.38
452.169	184.38
452.948	208.38
453.726	227.38
454.504	253.38
455.282	282.38
456.061	319.38
456.839	350.38
457.617	391.38
458.395	438.38
459.172	488.38
459.95	549.38
460.728	613.38
461.506	686.38
462.283	760.38
463.061	859.38
463.838	949.38
464.615	1056.38
465.393	1191.38
466.17	1326.38
466.947	1480.38
467.724	1624.38
468.501	1803.38
469.278	2016.38
470.055	2241.38
470.831	2474.38
471.608	2733.38
472.385	3025.38
473.161	3373.38
473.938	3701.38
474.714	4036.38
475.49	4453.38
476.266	4925.38
477.043	5409.38
477.819	5899.38
478.595	6463.38
479.371	7123.38
480.146	7791.38
480.922	8546.38
481.698	9326.38
482.473	10164.38
483.249	11049.38
484.024	12076.38
484.8	13107.38
485.575	14283.38
486.35	15539.38
487.126	16815.38
487.901	18221.38
488.676	19691.38
489.451	21357.38
490.225	22940.38
491	24658.38
491.775	26383.38
492.55	28284.38
493.324	30114.38
494.099	31891.38
494.873	33797.38
495.647	35811.38
496.422	37609.38
497.196	39470.38
497.97	41137.38
498.744	42661.38
499.518	44331.38
500.292	45621.38
501.066	46504.38
501.839	47430.38
502.613	48025.38
503.387	48535.38
504.16	48871.38
504.934	48848.38
505.707	48560.38
506.48	47977.38
507.253	47281.38
508.027	46341.38
508.8	45364.38
509.573	44083.38
510.346	42826.38
511.118	41596.38
511.891	40271.38
512.664	38635.38
513.437	37061.38
514.209	35711.38
514.982	34333.38
515.754	32797.38
516.526	31479.38
517.298	30121.38
518.071	28990.38
518.843	27752.38
519.615	26616.38
520.387	25614.38
521.159	24603.38
521.93	23565.38
522.702	22568.38
523.474	21576.38
524.245	20681.38
525.017	19746.38
525.788	18874.38
526.56	18015.38
527.331	17195.38
528.102	16305.38
528.873	15440.38
529.644	14706.38
530.415	14029.38
531.186	13337.38
531.957	12614.38
532.728	11942.38
533.498	11325.38
534.269	10695.38
535.039	10153.38
535.81	9583.38
536.58	9049.38
537.351	8550.38
538.121	8119.38
538.891	7714.38
539.661	7288.38
540.431	6854.38
541.201	6501.38
541.971	6186.38
542.741	5873.38
543.51	5558.38
544.28	5284.38
545.05	5072.38
545.819	4829.38
546.588	4585.38
547.358	4351.38
548.127	4151.38
548.896	3930.38
549.665	3702.38
550.434	3529.38
551.203	3334.38
551.972	3171.38
552.741	2988.38
553.51	2821.38
554.278	2657.38
555.047	2509.38
555.815	2359.38
556.584	2238.38
557.352	2128.38
558.121	1996.38
558.889	1892.38
559.657	1771.38
560.425	1689.38
561.193	1594.38
561.961	1502.38
562.729	1433.38
563.496	1343.38
564.264	1266.38
565.032	1207.38
565.799	1138.38
566.567	1087.38
567.334	1025.38
568.101	970.38
568.869	915.38
569.636	862.38
570.403	815.38
571.17	776.38
571.937	729.38
572.704	687.38
573.471	635.38
574.237	616.38
575.004	576.38
575.771	540.38
576.537	516.38
577.303	479.38
578.07	460.38
578.836	434.38
579.602	406.38
580.368	387.38
581.134	371.38
581.9	351.38
582.666	329.38
583.432	314.38
584.198	291.38
584.964	289.38
585.729	275.38
586.495	260.38
587.26	244.38
588.025	230.38
588.791	220.38
589.556	207.38
590.321	195.38
591.086	184.38
591.851	177.38
592.616	174.38
593.381	157.38
594.146	155.38
594.911	146.38
595.675	140.38
596.44	134.38
597.204	131.38
597.969	125.38
598.733	122.38
599.497	114.38
600.261	108.38
601.025	101.38
601.79	100.38
602.553	97.38
603.317	91.38
604.081	89.38
604.845	85.38
605.609	80.38
606.372	77.38
607.136	76.38
607.899	74.38
608.662	71.38
609.426	70.38
610.189	65.38
610.952	64.38
611.715	59.38
612.478	59.38
613.241	55.38
614.004	57.38
614.767	50.38
615.529	48.38
616.292	51.38
617.055	45.38
617.817	41.38
618.579	43.38
619.342	44.38
620.104	42.38
620.866	40.38
621.628	38.38
622.39	37.38
623.152	35.38
623.914	35.38
624.676	34.38
625.438	33.38
626.199	31.38
626.961	32.38
627.722	32.38
628.484	29.38
629.245	30.38
630.006	26.38
630.768	25.38
631.529	28.38
632.29	27.38
633.051	23.38
633.812	26.38
634.573	26.38
635.333	22.38
636.094	21.38
636.855	23.38
637.615	19.38
638.376	22.38
639.136	19.38
639.896	21.38
640.657	19.38
641.417	19.38
642.177	18.38
642.937	19.38
643.697	18.38
644.457	19.38
645.216	18.38
645.976	17.38
646.736	17.38
647.495	15.38
648.255	16.38
649.014	17.38
649.774	15.38
650.533	14.38
651.292	12.38
652.051	12.38
652.81	12.38
653.569	14.38
654.328	15.38
655.087	14.38
655.846	14.38
656.604	15.38
657.363	15.38
658.121	14.38
658.88	11.38
659.638	12.38
660.397	9.38
661.155	11.38
661.913	14.38
662.671	11.38
663.429	11.38
664.187	13.38
664.945	10.38
665.703	11.38
666.46	8.38
667.218	11.38
667.976	9.38
668.733	11.38
669.49	8.38
670.248	9.38
671.005	11.38
671.762	7.38
672.519	8.38
673.276	7.38
674.033	10.38
674.79	9.38
675.547	8.38
676.304	10.38
677.06	8.38
677.817	8.38
678.574	8.38
679.33	10.38
680.086	9.38
680.843	8.38
681.599	9.38
682.355	9.38
683.111	8.38
683.867	7.38
684.623	9.38
685.379	9.38
686.135	6.38
686.89	9.38
687.646	7.38
688.402	10.38
689.157	10.38
689.912	8.38
690.668	9.38
691.423	9.38
692.178	8.38
692.933	7.38
693.688	8.38
694.443	7.38
695.198	8.38
695.953	8.38
696.708	9.38
697.462	8.38
698.217	8.38
698.972	7.38
699.726	7.38
700.48	7.38
701.235	7.38
701.989	8.38
702.743	5.38
703.497	7.38
704.251	6.38
705.005	9.38
705.759	7.38
706.513	8.38
707.266	6.38
708.02	6.38
708.774	7.38
709.527	8.38
710.28	9.38
711.034	7.38
711.787	10.38
712.54	8.38
713.293	7.38
714.046	8.38
714.799	8.38
715.552	9.38
716.305	7.38
717.058	6.38
717.81	8.38
718.563	10.38
719.315	8.38
720.068	8.38
720.82	11.38
721.573	8.38
722.325	7.38
723.077	8.38
723.829	7.38
724.581	8.38
725.333	8.38
726.085	7.38
726.836	8.38
727.588	8.38
728.34	10.38
729.091	10.38
729.843	10.38
730.594	11.38
731.346	9.38
732.097	9.38
732.848	10.38
733.599	9.38
734.35	9.38
735.101	12.38
735.852	10.38
736.603	9.38
737.354	12.38
738.104	11.38
738.855	12.38
739.605	11.38
740.356	10.38
741.106	11.38
741.856	11.38
742.607	12.38
743.357	10.38
744.107	12.38
744.857	10.38
745.607	11.38
746.357	10.38
747.106	9.38
747.856	9.38
748.606	12.38
749.355	10.38
750.105	12.38
750.854	11.38
751.603	13.38
752.353	12.38
753.102	15.38
753.851	11.38
754.6	14.38
755.349	12.38
756.098	12.38
756.847	14.38
757.595	15.38
758.344	12.38
759.093	13.38
759.841	13.38
760.589	11.38
761.338	13.38
762.086	13.38
762.834	14.38
763.582	14.38
764.331	16.38
765.079	11.38
765.826	13.38
766.574	15.38
767.322	17.38
768.07	15.38
768.817	14.38
769.565	15.38
770.312	16.38
771.06	18.38
771.807	15.38
772.554	16.38
773.302	13.38
774.049	15.38
774.796	16.38
775.543	15.38
776.29	15.38
777.036	17.38
777.783	14.38
778.53	15.38
779.276	16.38
780.023	19.38
780.769	15.38
781.516	17.38
782.262	15.38
783.008	17.38
783.754	17.38
784.5	14.38
785.246	19.38
785.992	15.38
786.738	14.38
787.484	16.38
788.23	14.38
788.975	16.38
789.721	15.38
790.466	15.38
791.212	14.38
791.957	12.38
792.702	14.38
793.447	15.38
794.193	11.38
794.938	14.38
795.683	14.38
796.427	14.38
797.172	15.38
797.917	14.38
798.662	12.38
799.406	13.38
800.151	15.38
800.895	12.38
801.64	13.38
802.384	12.38
803.128	12.38
803.872	12.38
804.616	11.38
805.36	12.38
806.104	8.38
806.848	13.38
807.592	11.38
808.336	10.38
809.079	10.38
809.823	10.38
810.566	10.38
811.31	8.38
812.053	9.38
812.796	9.38
813.539	7.38
814.283	6.38
815.026	7.38
815.769	10.38
816.511	5.38
817.254	10.38
817.997	7.38
818.74	10.38
819.482	8.38
820.225	10.38
820.967	7.38
821.71	4.38
822.452	8.38
823.194	9.38
823.936	10.38
824.678	8.38
825.42	8.38
826.162	9.38
826.904	8.38
827.646	5.38
828.388	5.38
829.129	8.38
829.871	7.38
830.612	6.38
831.354	3.38
832.095	5.38
832.836	7.38
833.577	3.38
834.319	4.38
835.06	6.38
835.801	5.38
836.542	5.38
837.282	6.38
838.023	4.38
838.764	6.38
839.504	5.38
840.245	5.38
840.985	7.38
841.726	2.38
842.466	6.38
843.206	6.38
843.946	8.38
844.687	5.38
845.427	7.38
846.166	3.38
846.906	4.38
847.646	5.38
848.386	5.38
849.125	5.38
849.865	6.38
850.605	4.38
851.344	5.38
852.083	4.38
852.823	4.38
853.562	2.38
854.301	6.38
855.04	4.38
855.779	5.38
856.518	4.38
857.257	2.38
857.995	5.38
858.734	5.38
859.473	4.38
860.211	2.38
860.95	3.38
861.688	5.38
862.426	5.38
863.165	5.38
863.903	4.38
864.641	3.38
865.379	3.38
866.117	3.38
866.855	3.38
867.593	5.38
868.33	3.38
869.068	3.38
869.806	0.38
870.543	4.38
871.28	2.38
872.018	3.38
872.755	4.38
873.492	3.38
874.229	3.38
874.967	-0.62
875.703	4.38
876.44	3.38
877.177	1.38
877.914	1.38
878.651	-0.62
879.387	2.38
880.124	2.38
880.86	4.38
881.597	0.38
882.333	0.38
883.069	2.38
883.806	0.38
884.542	2.38
885.278	2.38
886.014	3.38
886.749	3.38
887.485	3.38
888.221	1.38
888.957	1.38
889.692	1.38
890.428	2.38
891.163	0.38
891.899	2.38
892.634	-0.62
893.369	0.38
894.104	1.38
894.839	0.38
895.574	1.38
896.309	-0.62
897.044	3.38
897.779	2.38
898.514	-0.62
899.248	0.38
899.983	0.38
900.717	1.38
901.452	1.38
902.186	1.38
902.92	2.38
903.654	2.38
904.389	2.38
905.123	1.38
905.857	2.38
906.59	0.38
907.324	1.38
908.058	2.38
908.792	1.38
909.525	1.38
910.259	0.38
910.992	0.38
911.726	1.38
912.459	3.38
913.192	0.38
913.925	0.38
914.658	2.38
915.391	-1.62
916.124	2.38
916.857	3.38
917.59	1.38
918.323	1.38
919.055	1.38
919.788	1.38
920.521	1.38
921.253	0.38
921.985	-0.62
922.718	1.38
923.45	2.38
924.182	2.38
924.914	0.38
925.646	-0.62
926.378	-0.62
927.11	1.38
927.841	1.38
928.573	-0.62
929.305	-0.62
930.036	0.38
930.768	1.38
931.499	2.38
932.23	1.38
932.962	-0.62
933.693	-0.62
934.424	0.38
935.155	1.38
935.886	2.38
936.617	-0.62
937.348	2.38
938.078	-0.62
938.809	1.38
939.54	2.38
940.27	1.38
941.001	2.38
941.731	-0.62
942.461	2.38
943.191	0.38
943.922	1.38
944.652	1.38
945.382	0.38
946.112	2.38
946.841	0.38
947.571	0.38
948.301	2.38
949.031	1.38
949.76	-0.62
950.49	1.38
951.219	1.38
951.948	-0.62
952.678	-0.62
953.407	-1.62
954.136	-0.62
954.865	0.38
955.594	-1.62
956.323	2.38
957.052	-0.62
957.78	3.38
958.509	1.38
959.238	2.38
959.966	2.38
960.695	-0.62
961.423	-0.62
962.151	0.38
962.88	1.38
963.608	4.38
964.336	2.38
965.064	1.38
965.792	-0.62
966.52	-0.62
967.247	1.38
967.975	-0.62
968.703	1.38
969.43	-0.62
970.158	0.38
970.885	-2.62
971.613	0.38
972.34	1.38
973.067	2.38
973.794	1.38
974.521	2.38
975.248	-0.62
975.975	3.38
976.702	2.38
977.429	0.38
978.156	-1.62
978.882	3.38
979.609	-0.62
980.335	1.38
981.062	-0.62
981.788	0.38
982.514	-0.62
983.24	1.38
983.967	1.38
984.693	2.38
985.419	0.38
986.144	0.38
986.87	0.38
987.596	1.38
988.322	1.38
989.047	0.38
989.773	-0.62
990.498	-0.62
991.224	2.38
991.949	-0.62
992.674	1.38
993.399	0.38
994.124	3.38
994.849	-0.62
995.574	1.38
996.299	0.38
997.024	0.38
997.749	2.38
998.473	-0.62
999.198	0.38
999.922	3.38
1000.647	1.38
1001.371	4.38
1002.095	-0.62
1002.82	-2.62
1003.544	-0.62
1004.268	5.38
1004.992	4.38
1005.716	2.38
1006.439	3.38
1007.163	7.38
1007.887	3.38
1008.611	2.38
1009.334	2.38
1010.058	1.38
1010.781	1.38
1011.504	0.38
1012.228	2.38
1012.951	1.38
1013.674	0.38
1014.397	-3.62
1015.12	1.38
