节点500_705_QEPB04081__157__20-48-28-067.txt的数据

Date: Wed Nov 12 20:48:28 CST 2025
User: PC
Spectrometer: QEPB0408
触发模式: 0
积分时间 (秒): 1.000000E-2
Scans to average: 1
启用暗噪声校正: true
启用非线性校正: false
滑动平均宽度: 0
X轴模式: Wavelengths
Number of Pixels in Spectrum: 1044
>>>>>Begin Spectral Data<<<<<
220.843	8.38
221.644	5.38
222.444	4.38
223.244	7.38
224.045	4.38
224.845	6.38
225.645	5.38
226.445	8.38
227.245	9.38
228.045	8.38
228.845	9.38
229.645	8.38
230.444	10.38
231.244	9.38
232.043	7.38
232.843	10.38
233.642	9.38
234.442	9.38
235.241	10.38
236.04	12.38
236.839	10.38
237.638	10.38
238.437	11.38
239.236	7.38
240.035	12.38
240.833	13.38
241.632	12.38
242.43	15.38
243.229	11.38
244.027	16.38
244.826	14.38
245.624	14.38
246.422	15.38
247.22	14.38
248.018	18.38
248.816	15.38
249.614	19.38
250.412	19.38
251.21	17.38
252.007	19.38
252.805	15.38
253.602	18.38
254.4	19.38
255.197	21.38
255.994	18.38
256.791	23.38
257.589	20.38
258.386	24.38
259.183	21.38
259.979	20.38
260.776	25.38
261.573	25.38
262.37	27.38
263.166	29.38
263.963	28.38
264.759	28.38
265.556	26.38
266.352	28.38
267.148	31.38
267.944	29.38
268.74	32.38
269.536	32.38
270.332	31.38
271.128	31.38
271.924	31.38
272.719	31.38
273.515	35.38
274.311	33.38
275.106	31.38
275.901	35.38
276.697	35.38
277.492	34.38
278.287	36.38
279.082	34.38
279.877	35.38
280.672	34.38
281.467	34.38
282.262	38.38
283.056	38.38
283.851	33.38
284.646	33.38
285.44	35.38
286.234	34.38
287.029	36.38
287.823	33.38
288.617	37.38
289.411	32.38
290.205	33.38
290.999	33.38
291.793	30.38
292.587	30.38
293.381	31.38
294.174	32.38
294.968	33.38
295.761	28.38
296.555	27.38
297.348	28.38
298.141	25.38
298.935	31.38
299.728	25.38
300.521	26.38
301.314	26.38
302.107	24.38
302.899	26.38
303.692	21.38
304.485	25.38
305.277	21.38
306.07	23.38
306.862	24.38
307.655	22.38
308.447	21.38
309.239	20.38
310.031	19.38
310.823	19.38
311.615	19.38
312.407	18.38
313.199	19.38
313.991	19.38
314.783	16.38
315.574	14.38
316.366	17.38
317.157	15.38
317.949	13.38
318.74	15.38
319.531	15.38
320.322	12.38
321.113	15.38
321.904	15.38
322.695	12.38
323.486	17.38
324.277	13.38
325.068	15.38
325.858	12.38
326.649	15.38
327.439	15.38
328.23	14.38
329.02	11.38
329.81	12.38
330.6	12.38
331.391	14.38
332.181	12.38
332.971	14.38
333.76	13.38
334.55	10.38
335.34	12.38
336.13	9.38
336.919	13.38
337.709	14.38
338.498	13.38
339.287	11.38
340.077	12.38
340.866	13.38
341.655	13.38
342.444	11.38
343.233	11.38
344.022	14.38
344.811	10.38
345.6	13.38
346.388	13.38
347.177	13.38
347.965	12.38
348.754	12.38
349.542	11.38
350.33	12.38
351.119	10.38
351.907	13.38
352.695	12.38
353.483	8.38
354.271	9.38
355.059	13.38
355.846	11.38
356.634	8.38
357.422	10.38
358.209	12.38
358.997	10.38
359.784	10.38
360.571	12.38
361.359	10.38
362.146	9.38
362.933	8.38
363.72	10.38
364.507	9.38
365.294	9.38
366.081	8.38
366.867	9.38
367.654	10.38
368.44	10.38
369.227	11.38
370.013	11.38
370.8	9.38
371.586	9.38
372.372	12.38
373.158	10.38
373.944	10.38
374.73	11.38
375.516	12.38
376.302	10.38
377.088	12.38
377.873	10.38
378.659	10.38
379.445	9.38
380.23	11.38
381.015	9.38
381.801	9.38
382.586	12.38
383.371	11.38
384.156	11.38
384.941	10.38
385.726	11.38
386.511	11.38
387.296	13.38
388.08	13.38
388.865	10.38
389.649	11.38
390.434	13.38
391.218	14.38
392.003	12.38
392.787	12.38
393.571	12.38
394.355	11.38
395.139	13.38
395.923	15.38
396.707	12.38
397.491	11.38
398.274	12.38
399.058	11.38
399.842	14.38
400.625	14.38
401.408	15.38
402.192	15.38
402.975	15.38
403.758	14.38
404.541	16.38
405.324	13.38
406.107	12.38
406.89	17.38
407.673	14.38
408.456	15.38
409.238	17.38
410.021	17.38
410.803	16.38
411.586	16.38
412.368	17.38
413.151	18.38
413.933	16.38
414.715	18.38
415.497	19.38
416.279	19.38
417.061	20.38
417.843	21.38
418.624	18.38
419.406	19.38
420.188	22.38
420.969	22.38
421.751	21.38
422.532	25.38
423.313	26.38
424.095	24.38
424.876	23.38
425.657	26.38
426.438	26.38
427.219	29.38
428	28.38
428.78	31.38
429.561	29.38
430.342	29.38
431.122	31.38
431.903	35.38
432.683	34.38
433.464	34.38
434.244	35.38
435.024	39.38
435.804	40.38
436.584	42.38
437.364	47.38
438.144	46.38
438.924	48.38
439.704	50.38
440.483	56.38
441.263	63.38
442.042	66.38
442.822	71.38
443.601	73.38
444.38	79.38
445.16	86.38
445.939	86.38
446.718	99.38
447.497	106.38
448.276	111.38
449.054	131.38
449.833	137.38
450.612	155.38
451.391	169.38
452.169	190.38
452.948	213.38
453.726	228.38
454.504	259.38
455.282	284.38
456.061	311.38
456.839	352.38
457.617	390.38
458.395	437.38
459.172	483.38
459.95	543.38
460.728	608.38
461.506	682.38
462.283	751.38
463.061	847.38
463.838	960.38
464.615	1062.38
465.393	1183.38
466.17	1314.38
466.947	1471.38
467.724	1634.38
468.501	1815.38
469.278	2025.38
470.055	2218.38
470.831	2475.38
471.608	2743.38
472.385	3029.38
473.161	3375.38
473.938	3712.38
474.714	4088.38
475.49	4478.38
476.266	4935.38
477.043	5408.38
477.819	5938.38
478.595	6517.38
479.371	7131.38
480.146	7789.38
480.922	8567.38
481.698	9334.38
482.473	10220.38
483.249	11183.38
484.024	12126.38
484.8	13203.38
485.575	14326.38
486.35	15568.38
487.126	16885.38
487.901	18276.38
488.676	19856.38
489.451	21430.38
490.225	23125.38
491	24788.38
491.775	26570.38
492.55	28476.38
493.324	30307.38
494.099	32176.38
494.873	34124.38
495.647	36010.38
496.422	37863.38
497.196	39762.38
497.97	41403.38
498.744	42946.38
499.518	44536.38
500.292	45851.38
501.066	46839.38
501.839	47685.38
502.613	48337.38
503.387	48818.38
504.16	49166.38
504.934	48996.38
505.707	48747.38
506.48	48208.38
507.253	47482.38
508.027	46561.38
508.8	45431.38
509.573	44190.38
510.346	42956.38
511.118	41781.38
511.891	40451.38
512.664	38691.38
513.437	37209.38
514.209	35769.38
514.982	34328.38
515.754	32879.38
516.526	31509.38
517.298	30198.38
518.071	28987.38
518.843	27808.38
519.615	26667.38
520.387	25709.38
521.159	24625.38
521.93	23624.38
522.702	22578.38
523.474	21604.38
524.245	20713.38
525.017	19718.38
525.788	18889.38
526.56	18047.38
527.331	17216.38
528.102	16312.38
528.873	15482.38
529.644	14757.38
530.415	14051.38
531.186	13391.38
531.957	12630.38
532.728	11979.38
533.498	11332.38
534.269	10719.38
535.039	10160.38
535.81	9586.38
536.58	9041.38
537.351	8597.38
538.121	8150.38
538.891	7672.38
539.661	7260.38
540.431	6865.38
541.201	6514.38
541.971	6206.38
542.741	5858.38
543.51	5559.38
544.28	5317.38
545.05	5058.38
545.819	4788.38
546.588	4575.38
547.358	4343.38
548.127	4170.38
548.896	3920.38
549.665	3692.38
550.434	3507.38
551.203	3344.38
551.972	3150.38
552.741	2981.38
553.51	2830.38
554.278	2687.38
555.047	2486.38
555.815	2389.38
556.584	2261.38
557.352	2106.38
558.121	2011.38
558.889	1882.38
559.657	1777.38
560.425	1692.38
561.193	1595.38
561.961	1528.38
562.729	1432.38
563.496	1356.38
564.264	1269.38
565.032	1196.38
565.799	1139.38
566.567	1077.38
567.334	1025.38
568.101	969.38
568.869	911.38
569.636	857.38
570.403	814.38
571.17	772.38
571.937	730.38
572.704	688.38
573.471	654.38
574.237	612.38
575.004	579.38
575.771	538.38
576.537	510.38
577.303	488.38
578.07	464.38
578.836	422.38
579.602	402.38
580.368	385.38
581.134	371.38
581.9	341.38
582.666	332.38
583.432	310.38
584.198	293.38
584.964	288.38
585.729	267.38
586.495	256.38
587.26	247.38
588.025	231.38
588.791	219.38
589.556	206.38
590.321	197.38
591.086	190.38
591.851	178.38
592.616	167.38
593.381	160.38
594.146	155.38
594.911	144.38
595.675	142.38
596.44	130.38
597.204	131.38
597.969	123.38
598.733	117.38
599.497	113.38
600.261	106.38
601.025	108.38
601.79	101.38
602.553	94.38
603.317	91.38
604.081	85.38
604.845	85.38
605.609	83.38
606.372	78.38
607.136	75.38
607.899	72.38
608.662	69.38
609.426	66.38
610.189	66.38
610.952	63.38
611.715	62.38
612.478	58.38
613.241	56.38
614.004	52.38
614.767	54.38
615.529	52.38
616.292	51.38
617.055	49.38
617.817	45.38
618.579	45.38
619.342	43.38
620.104	40.38
620.866	39.38
621.628	39.38
622.39	36.38
623.152	38.38
623.914	33.38
624.676	33.38
625.438	29.38
626.199	31.38
626.961	33.38
627.722	30.38
628.484	32.38
629.245	29.38
630.006	28.38
630.768	26.38
631.529	27.38
632.29	25.38
633.051	26.38
633.812	27.38
634.573	24.38
635.333	24.38
636.094	22.38
636.855	21.38
637.615	25.38
638.376	21.38
639.136	22.38
639.896	20.38
640.657	18.38
641.417	20.38
642.177	18.38
642.937	19.38
643.697	17.38
644.457	17.38
645.216	17.38
645.976	15.38
646.736	15.38
647.495	15.38
648.255	15.38
649.014	15.38
649.774	14.38
650.533	14.38
651.292	14.38
652.051	17.38
652.81	13.38
653.569	14.38
654.328	12.38
655.087	12.38
655.846	13.38
656.604	15.38
657.363	14.38
658.121	13.38
658.88	9.38
659.638	10.38
660.397	10.38
661.155	17.38
661.913	10.38
662.671	12.38
663.429	10.38
664.187	9.38
664.945	11.38
665.703	9.38
666.46	9.38
667.218	10.38
667.976	12.38
668.733	9.38
669.49	8.38
670.248	12.38
671.005	9.38
671.762	8.38
672.519	9.38
673.276	12.38
674.033	9.38
674.79	9.38
675.547	9.38
676.304	9.38
677.06	10.38
677.817	9.38
678.574	8.38
679.33	9.38
680.086	9.38
680.843	8.38
681.599	8.38
682.355	7.38
683.111	9.38
683.867	7.38
684.623	9.38
685.379	7.38
686.135	7.38
686.89	7.38
687.646	6.38
688.402	6.38
689.157	8.38
689.912	10.38
690.668	9.38
691.423	6.38
692.178	9.38
692.933	9.38
693.688	8.38
694.443	9.38
695.198	6.38
695.953	11.38
696.708	9.38
697.462	8.38
698.217	9.38
698.972	10.38
699.726	8.38
700.48	10.38
701.235	8.38
701.989	5.38
702.743	10.38
703.497	7.38
704.251	5.38
705.005	9.38
705.759	6.38
706.513	8.38
707.266	5.38
708.02	9.38
708.774	5.38
709.527	6.38
710.28	8.38
711.034	7.38
711.787	8.38
712.54	8.38
713.293	10.38
714.046	8.38
714.799	10.38
715.552	8.38
716.305	6.38
717.058	10.38
717.81	8.38
718.563	10.38
719.315	7.38
720.068	6.38
720.82	11.38
721.573	6.38
722.325	12.38
723.077	9.38
723.829	10.38
724.581	9.38
725.333	9.38
726.085	8.38
726.836	8.38
727.588	8.38
728.34	9.38
729.091	11.38
729.843	10.38
730.594	8.38
731.346	10.38
732.097	9.38
732.848	9.38
733.599	11.38
734.35	11.38
735.101	12.38
735.852	10.38
736.603	9.38
737.354	9.38
738.104	9.38
738.855	11.38
739.605	11.38
740.356	9.38
741.106	8.38
741.856	11.38
742.607	10.38
743.357	10.38
744.107	13.38
744.857	10.38
745.607	12.38
746.357	11.38
747.106	10.38
747.856	11.38
748.606	9.38
749.355	12.38
750.105	10.38
750.854	9.38
751.603	11.38
752.353	13.38
753.102	15.38
753.851	10.38
754.6	11.38
755.349	14.38
756.098	15.38
756.847	12.38
757.595	14.38
758.344	13.38
759.093	12.38
759.841	13.38
760.589	13.38
761.338	14.38
762.086	13.38
762.834	12.38
763.582	13.38
764.331	14.38
765.079	15.38
765.826	15.38
766.574	16.38
767.322	12.38
768.07	15.38
768.817	16.38
769.565	13.38
770.312	14.38
771.06	18.38
771.807	14.38
772.554	16.38
773.302	15.38
774.049	14.38
774.796	17.38
775.543	15.38
776.29	16.38
777.036	16.38
777.783	14.38
778.53	18.38
779.276	15.38
780.023	17.38
780.769	15.38
781.516	15.38
782.262	14.38
783.008	15.38
783.754	14.38
784.5	16.38
785.246	17.38
785.992	15.38
786.738	18.38
787.484	15.38
788.23	14.38
788.975	15.38
789.721	16.38
790.466	15.38
791.212	14.38
791.957	16.38
792.702	13.38
793.447	13.38
794.193	12.38
794.938	14.38
795.683	16.38
796.427	16.38
797.172	17.38
797.917	13.38
798.662	13.38
799.406	12.38
800.151	15.38
800.895	15.38
801.64	13.38
802.384	13.38
803.128	11.38
803.872	11.38
804.616	12.38
805.36	10.38
806.104	13.38
806.848	9.38
807.592	11.38
808.336	13.38
809.079	9.38
809.823	10.38
810.566	11.38
811.31	10.38
812.053	9.38
812.796	10.38
813.539	10.38
814.283	10.38
815.026	10.38
815.769	8.38
816.511	8.38
817.254	10.38
817.997	8.38
818.74	7.38
819.482	6.38
820.225	9.38
820.967	5.38
821.71	8.38
822.452	7.38
823.194	9.38
823.936	7.38
824.678	8.38
825.42	10.38
826.162	7.38
826.904	5.38
827.646	8.38
828.388	7.38
829.129	9.38
829.871	7.38
830.612	7.38
831.354	5.38
832.095	4.38
832.836	6.38
833.577	7.38
834.319	6.38
835.06	5.38
835.801	6.38
836.542	7.38
837.282	6.38
838.023	7.38
838.764	5.38
839.504	6.38
840.245	5.38
840.985	5.38
841.726	6.38
842.466	6.38
843.206	5.38
843.946	4.38
844.687	4.38
845.427	5.38
846.166	5.38
846.906	6.38
847.646	5.38
848.386	6.38
849.125	4.38
849.865	6.38
850.605	8.38
851.344	4.38
852.083	5.38
852.823	6.38
853.562	4.38
854.301	7.38
855.04	5.38
855.779	4.38
856.518	6.38
857.257	5.38
857.995	3.38
858.734	6.38
859.473	6.38
860.211	3.38
860.95	6.38
861.688	4.38
862.426	2.38
863.165	4.38
863.903	2.38
864.641	3.38
865.379	3.38
866.117	4.38
866.855	0.38
867.593	4.38
868.33	3.38
869.068	2.38
869.806	0.38
870.543	4.38
871.28	5.38
872.018	0.38
872.755	1.38
873.492	1.38
874.229	2.38
874.967	2.38
875.703	1.38
876.44	2.38
877.177	4.38
877.914	3.38
878.651	3.38
879.387	3.38
880.124	3.38
880.86	3.38
881.597	2.38
882.333	1.38
883.069	2.38
883.806	6.38
884.542	1.38
885.278	4.38
886.014	3.38
886.749	1.38
887.485	1.38
888.221	0.38
888.957	0.38
889.692	2.38
890.428	3.38
891.163	2.38
891.899	-0.62
892.634	3.38
893.369	2.38
894.104	1.38
894.839	1.38
895.574	1.38
896.309	2.38
897.044	1.38
897.779	0.38
898.514	2.38
899.248	1.38
899.983	3.38
900.717	2.38
901.452	-0.62
902.186	1.38
902.92	3.38
903.654	1.38
904.389	1.38
905.123	1.38
905.857	-0.62
906.59	-0.62
907.324	0.38
908.058	0.38
908.792	2.38
909.525	2.38
910.259	2.38
910.992	-0.62
911.726	2.38
912.459	-0.62
913.192	2.38
913.925	1.38
914.658	0.38
915.391	0.38
916.124	-0.62
916.857	2.38
917.59	3.38
918.323	1.38
919.055	0.38
919.788	0.38
920.521	0.38
921.253	1.38
921.985	-0.62
922.718	1.38
923.45	1.38
924.182	1.38
924.914	-0.62
925.646	1.38
926.378	1.38
927.11	-0.62
927.841	0.38
928.573	0.38
929.305	2.38
930.036	0.38
930.768	0.38
931.499	-0.62
932.23	0.38
932.962	0.38
933.693	-2.62
934.424	1.38
935.155	-0.62
935.886	0.38
936.617	0.38
937.348	1.38
938.078	1.38
938.809	-1.62
939.54	2.38
940.27	2.38
941.001	2.38
941.731	3.38
942.461	-0.62
943.191	-1.62
943.922	2.38
944.652	-0.62
945.382	2.38
946.112	-0.62
946.841	1.38
947.571	1.38
948.301	0.38
949.031	-0.62
949.76	-1.62
950.49	3.38
951.219	0.38
951.948	-1.62
952.678	0.38
953.407	1.38
954.136	1.38
954.865	-0.62
955.594	1.38
956.323	0.38
957.052	0.38
957.78	1.38
958.509	1.38
959.238	1.38
959.966	-0.62
960.695	0.38
961.423	0.38
962.151	-0.62
962.88	-0.62
963.608	-0.62
964.336	0.38
965.064	-0.62
965.792	1.38
966.52	1.38
967.247	1.38
967.975	-0.62
968.703	-0.62
969.43	-0.62
970.158	2.38
970.885	1.38
971.613	1.38
972.34	-0.62
973.067	0.38
973.794	-0.62
974.521	2.38
975.248	1.38
975.975	-1.62
976.702	2.38
977.429	1.38
978.156	0.38
978.882	-0.62
979.609	2.38
980.335	0.38
981.062	2.38
981.788	1.38
982.514	-0.62
983.24	3.38
983.967	-0.62
984.693	-0.62
985.419	1.38
986.144	2.38
986.87	2.38
987.596	0.38
988.322	2.38
989.047	3.38
989.773	1.38
990.498	0.38
991.224	-1.62
991.949	2.38
992.674	0.38
993.399	1.38
994.124	-1.62
994.849	-0.62
995.574	2.38
996.299	1.38
997.024	-0.62
997.749	2.38
998.473	1.38
999.198	2.38
999.922	1.38
1000.647	2.38
1001.371	2.38
1002.095	-1.62
1002.82	-1.62
1003.544	1.38
1004.268	5.38
1004.992	6.38
1005.716	7.38
1006.439	5.38
1007.163	9.38
1007.887	5.38
1008.611	0.38
1009.334	1.38
1010.058	2.38
1010.781	-0.62
1011.504	-0.62
1012.228	0.38
1012.951	-0.62
1013.674	0.38
1014.397	0.38
1015.12	-0.62
