节点500_705_QEPB04081__457__20-52-22-775.txt的数据

Date: Wed Nov 12 20:52:22 CST 2025
User: PC
Spectrometer: QEPB0408
触发模式: 0
积分时间 (秒): 1.000000E-2
Scans to average: 1
启用暗噪声校正: true
启用非线性校正: false
滑动平均宽度: 0
X轴模式: Wavelengths
Number of Pixels in Spectrum: 1044
>>>>>Begin Spectral Data<<<<<
220.843	4.12
221.644	4.12
222.444	4.12
223.244	6.12
224.045	3.12
224.845	4.12
225.645	7.12
226.445	7.12
227.245	8.12
228.045	7.12
228.845	7.12
229.645	7.12
230.444	7.12
231.244	8.12
232.043	9.12
232.843	9.12
233.642	8.12
234.442	9.12
235.241	9.12
236.04	10.12
236.839	10.12
237.638	7.12
238.437	10.12
239.236	8.12
240.035	9.12
240.833	10.12
241.632	11.12
242.43	9.12
243.229	12.12
244.027	11.12
244.826	11.12
245.624	14.12
246.422	12.12
247.22	12.12
248.018	10.12
248.816	14.12
249.614	16.12
250.412	15.12
251.21	14.12
252.007	16.12
252.805	17.12
253.602	16.12
254.4	17.12
255.197	16.12
255.994	18.12
256.791	17.12
257.589	17.12
258.386	22.12
259.183	22.12
259.979	21.12
260.776	19.12
261.573	20.12
262.37	22.12
263.166	22.12
263.963	23.12
264.759	24.12
265.556	25.12
266.352	23.12
267.148	26.12
267.944	29.12
268.74	25.12
269.536	28.12
270.332	26.12
271.128	28.12
271.924	30.12
272.719	30.12
273.515	29.12
274.311	30.12
275.106	28.12
275.901	33.12
276.697	30.12
277.492	30.12
278.287	31.12
279.082	36.12
279.877	33.12
280.672	35.12
281.467	34.12
282.262	33.12
283.056	33.12
283.851	31.12
284.646	31.12
285.44	32.12
286.234	32.12
287.029	29.12
287.823	33.12
288.617	32.12
289.411	30.12
290.205	30.12
290.999	32.12
291.793	30.12
292.587	32.12
293.381	29.12
294.174	32.12
294.968	27.12
295.761	29.12
296.555	29.12
297.348	26.12
298.141	24.12
298.935	23.12
299.728	25.12
300.521	20.12
301.314	25.12
302.107	24.12
302.899	21.12
303.692	20.12
304.485	23.12
305.277	22.12
306.07	21.12
306.862	21.12
307.655	24.12
308.447	22.12
309.239	19.12
310.031	19.12
310.823	20.12
311.615	21.12
312.407	17.12
313.199	17.12
313.991	17.12
314.783	17.12
315.574	14.12
316.366	15.12
317.157	14.12
317.949	14.12
318.74	15.12
319.531	15.12
320.322	15.12
321.113	14.12
321.904	13.12
322.695	14.12
323.486	14.12
324.277	13.12
325.068	13.12
325.858	10.12
326.649	12.12
327.439	11.12
328.23	15.12
329.02	13.12
329.81	12.12
330.6	11.12
331.391	11.12
332.181	10.12
332.971	13.12
333.76	12.12
334.55	10.12
335.34	11.12
336.13	10.12
336.919	11.12
337.709	10.12
338.498	8.12
339.287	10.12
340.077	10.12
340.866	11.12
341.655	10.12
342.444	10.12
343.233	11.12
344.022	13.12
344.811	12.12
345.6	11.12
346.388	11.12
347.177	10.12
347.965	12.12
348.754	11.12
349.542	11.12
350.33	8.12
351.119	12.12
351.907	10.12
352.695	10.12
353.483	10.12
354.271	9.12
355.059	11.12
355.846	8.12
356.634	10.12
357.422	9.12
358.209	10.12
358.997	9.12
359.784	9.12
360.571	9.12
361.359	9.12
362.146	11.12
362.933	9.12
363.72	8.12
364.507	10.12
365.294	9.12
366.081	9.12
366.867	7.12
367.654	10.12
368.44	10.12
369.227	10.12
370.013	10.12
370.8	8.12
371.586	10.12
372.372	11.12
373.158	6.12
373.944	8.12
374.73	9.12
375.516	9.12
376.302	10.12
377.088	8.12
377.873	9.12
378.659	10.12
379.445	7.12
380.23	8.12
381.015	12.12
381.801	8.12
382.586	9.12
383.371	7.12
384.156	9.12
384.941	10.12
385.726	7.12
386.511	12.12
387.296	10.12
388.08	11.12
388.865	11.12
389.649	10.12
390.434	10.12
391.218	10.12
392.003	11.12
392.787	11.12
393.571	10.12
394.355	11.12
395.139	10.12
395.923	12.12
396.707	10.12
397.491	12.12
398.274	11.12
399.058	10.12
399.842	13.12
400.625	11.12
401.408	11.12
402.192	13.12
402.975	14.12
403.758	13.12
404.541	13.12
405.324	15.12
406.107	14.12
406.89	16.12
407.673	15.12
408.456	11.12
409.238	13.12
410.021	16.12
410.803	16.12
411.586	17.12
412.368	16.12
413.151	15.12
413.933	15.12
414.715	18.12
415.497	19.12
416.279	17.12
417.061	16.12
417.843	19.12
418.624	22.12
419.406	18.12
420.188	19.12
420.969	21.12
421.751	19.12
422.532	19.12
423.313	20.12
424.095	25.12
424.876	24.12
425.657	23.12
426.438	22.12
427.219	27.12
428	28.12
428.78	27.12
429.561	25.12
430.342	30.12
431.122	28.12
431.903	33.12
432.683	30.12
433.464	33.12
434.244	34.12
435.024	38.12
435.804	39.12
436.584	42.12
437.364	45.12
438.144	48.12
438.924	50.12
439.704	54.12
440.483	55.12
441.263	60.12
442.042	64.12
442.822	70.12
443.601	78.12
444.38	81.12
445.16	91.12
445.939	96.12
446.718	108.12
447.497	111.12
448.276	124.12
449.054	136.12
449.833	156.12
450.612	165.12
451.391	186.12
452.169	199.12
452.948	226.12
453.726	254.12
454.504	284.12
455.282	306.12
456.061	348.12
456.839	388.12
457.617	422.12
458.395	474.12
459.172	528.12
459.95	590.12
460.728	652.12
461.506	736.12
462.283	820.12
463.061	903.12
463.838	998.12
464.615	1121.12
465.393	1231.12
466.17	1370.12
466.947	1535.12
467.724	1703.12
468.501	1856.12
469.278	2051.12
470.055	2273.12
470.831	2524.12
471.608	2755.12
472.385	3024.12
473.161	3313.12
473.938	3652.12
474.714	4013.12
475.49	4397.12
476.266	4820.12
477.043	5254.12
477.819	5714.12
478.595	6217.12
479.371	6782.12
480.146	7383.12
480.922	8056.12
481.698	8716.12
482.473	9405.12
483.249	10257.12
484.024	11139.12
484.8	12002.12
485.575	12982.12
486.35	14092.12
487.126	15236.12
487.901	16401.12
488.676	17598.12
489.451	19017.12
490.225	20391.12
491	21867.12
491.775	23365.12
492.55	24988.12
493.324	26537.12
494.099	28227.12
494.873	29973.12
495.647	31500.12
496.422	33264.12
497.196	34986.12
497.97	36545.12
498.744	37998.12
499.518	39685.12
500.292	40978.12
501.066	42089.12
501.839	43041.12
502.613	43963.12
503.387	44578.12
504.16	45195.12
504.934	45429.12
505.707	45550.12
506.48	45236.12
507.253	44972.12
508.027	44528.12
508.8	43691.12
509.573	42805.12
510.346	42012.12
511.118	41078.12
511.891	40002.12
512.664	38645.12
513.437	37214.12
514.209	35955.12
514.982	34643.12
515.754	33256.12
516.526	31951.12
517.298	30706.12
518.071	29549.12
518.843	28359.12
519.615	27171.12
520.387	26094.12
521.159	25094.12
521.93	24081.12
522.702	23068.12
523.474	22112.12
524.245	21258.12
525.017	20308.12
525.788	19486.12
526.56	18696.12
527.331	17894.12
528.102	16981.12
528.873	16150.12
529.644	15363.12
530.415	14677.12
531.186	13974.12
531.957	13224.12
532.728	12660.12
533.498	11989.12
534.269	11346.12
535.039	10766.12
535.81	10164.12
536.58	9628.12
537.351	9113.12
538.121	8645.12
538.891	8159.12
539.661	7722.12
540.431	7258.12
541.201	6912.12
541.971	6595.12
542.741	6219.12
543.51	5915.12
544.28	5638.12
545.05	5377.12
545.819	5122.12
546.588	4886.12
547.358	4667.12
548.127	4423.12
548.896	4214.12
549.665	3974.12
550.434	3785.12
551.203	3554.12
551.972	3409.12
552.741	3226.12
553.51	3032.12
554.278	2856.12
555.047	2715.12
555.815	2562.12
556.584	2415.12
557.352	2280.12
558.121	2180.12
558.889	2036.12
559.657	1926.12
560.425	1846.12
561.193	1742.12
561.961	1651.12
562.729	1567.12
563.496	1462.12
564.264	1387.12
565.032	1316.12
565.799	1245.12
566.567	1184.12
567.334	1113.12
568.101	1047.12
568.869	996.12
569.636	934.12
570.403	880.12
571.17	831.12
571.937	785.12
572.704	744.12
573.471	698.12
574.237	663.12
575.004	623.12
575.771	584.12
576.537	553.12
577.303	532.12
578.07	498.12
578.836	479.12
579.602	440.12
580.368	417.12
581.134	411.12
581.9	380.12
582.666	363.12
583.432	345.12
584.198	326.12
584.964	309.12
585.729	294.12
586.495	281.12
587.26	258.12
588.025	250.12
588.791	238.12
589.556	221.12
590.321	216.12
591.086	199.12
591.851	195.12
592.616	182.12
593.381	176.12
594.146	165.12
594.911	160.12
595.675	153.12
596.44	148.12
597.204	143.12
597.969	133.12
598.733	126.12
599.497	122.12
600.261	112.12
601.025	104.12
601.79	105.12
602.553	102.12
603.317	94.12
604.081	92.12
604.845	86.12
605.609	90.12
606.372	84.12
607.136	81.12
607.899	81.12
608.662	73.12
609.426	69.12
610.189	70.12
610.952	67.12
611.715	61.12
612.478	59.12
613.241	53.12
614.004	55.12
614.767	53.12
615.529	51.12
616.292	50.12
617.055	49.12
617.817	49.12
618.579	46.12
619.342	45.12
620.104	42.12
620.866	42.12
621.628	38.12
622.39	39.12
623.152	37.12
623.914	33.12
624.676	34.12
625.438	33.12
626.199	34.12
626.961	34.12
627.722	28.12
628.484	27.12
629.245	29.12
630.006	26.12
630.768	26.12
631.529	29.12
632.29	25.12
633.051	24.12
633.812	23.12
634.573	24.12
635.333	25.12
636.094	27.12
636.855	19.12
637.615	23.12
638.376	19.12
639.136	19.12
639.896	20.12
640.657	20.12
641.417	16.12
642.177	17.12
642.937	16.12
643.697	20.12
644.457	17.12
645.216	20.12
645.976	14.12
646.736	16.12
647.495	14.12
648.255	15.12
649.014	15.12
649.774	15.12
650.533	12.12
651.292	14.12
652.051	12.12
652.81	15.12
653.569	13.12
654.328	12.12
655.087	13.12
655.846	13.12
656.604	11.12
657.363	12.12
658.121	13.12
658.88	12.12
659.638	11.12
660.397	10.12
661.155	10.12
661.913	10.12
662.671	8.12
663.429	12.12
664.187	9.12
664.945	8.12
665.703	8.12
666.46	9.12
667.218	9.12
667.976	9.12
668.733	10.12
669.49	8.12
670.248	8.12
671.005	9.12
671.762	9.12
672.519	10.12
673.276	10.12
674.033	7.12
674.79	8.12
675.547	7.12
676.304	10.12
677.06	9.12
677.817	8.12
678.574	9.12
679.33	8.12
680.086	6.12
680.843	9.12
681.599	8.12
682.355	4.12
683.111	7.12
683.867	9.12
684.623	5.12
685.379	9.12
686.135	6.12
686.89	7.12
687.646	6.12
688.402	7.12
689.157	8.12
689.912	6.12
690.668	9.12
691.423	6.12
692.178	9.12
692.933	6.12
693.688	7.12
694.443	6.12
695.198	7.12
695.953	7.12
696.708	9.12
697.462	6.12
698.217	6.12
698.972	5.12
699.726	5.12
700.48	5.12
701.235	7.12
701.989	8.12
702.743	10.12
703.497	4.12
704.251	7.12
705.005	8.12
705.759	6.12
706.513	8.12
707.266	4.12
708.02	7.12
708.774	7.12
709.527	7.12
710.28	6.12
711.034	6.12
711.787	7.12
712.54	7.12
713.293	6.12
714.046	5.12
714.799	6.12
715.552	5.12
716.305	6.12
717.058	7.12
717.81	7.12
718.563	5.12
719.315	9.12
720.068	6.12
720.82	6.12
721.573	7.12
722.325	6.12
723.077	7.12
723.829	6.12
724.581	6.12
725.333	9.12
726.085	5.12
726.836	7.12
727.588	5.12
728.34	6.12
729.091	7.12
729.843	8.12
730.594	10.12
731.346	8.12
732.097	8.12
732.848	9.12
733.599	7.12
734.35	9.12
735.101	9.12
735.852	6.12
736.603	7.12
737.354	9.12
738.104	11.12
738.855	9.12
739.605	11.12
740.356	8.12
741.106	9.12
741.856	8.12
742.607	10.12
743.357	10.12
744.107	9.12
744.857	9.12
745.607	9.12
746.357	8.12
747.106	12.12
747.856	10.12
748.606	10.12
749.355	12.12
750.105	9.12
750.854	6.12
751.603	7.12
752.353	9.12
753.102	10.12
753.851	10.12
754.6	11.12
755.349	11.12
756.098	13.12
756.847	10.12
757.595	10.12
758.344	12.12
759.093	10.12
759.841	8.12
760.589	11.12
761.338	12.12
762.086	12.12
762.834	14.12
763.582	11.12
764.331	10.12
765.079	10.12
765.826	11.12
766.574	13.12
767.322	14.12
768.07	13.12
768.817	12.12
769.565	13.12
770.312	10.12
771.06	14.12
771.807	13.12
772.554	14.12
773.302	15.12
774.049	13.12
774.796	13.12
775.543	14.12
776.29	11.12
777.036	13.12
777.783	15.12
778.53	15.12
779.276	13.12
780.023	13.12
780.769	14.12
781.516	14.12
782.262	14.12
783.008	13.12
783.754	15.12
784.5	14.12
785.246	14.12
785.992	15.12
786.738	12.12
787.484	13.12
788.23	13.12
788.975	13.12
789.721	14.12
790.466	11.12
791.212	13.12
791.957	16.12
792.702	14.12
793.447	11.12
794.193	12.12
794.938	13.12
795.683	14.12
796.427	12.12
797.172	14.12
797.917	15.12
798.662	12.12
799.406	10.12
800.151	13.12
800.895	10.12
801.64	12.12
802.384	11.12
803.128	11.12
803.872	10.12
804.616	11.12
805.36	7.12
806.104	10.12
806.848	8.12
807.592	13.12
808.336	9.12
809.079	9.12
809.823	7.12
810.566	8.12
811.31	6.12
812.053	10.12
812.796	7.12
813.539	7.12
814.283	10.12
815.026	10.12
815.769	8.12
816.511	9.12
817.254	8.12
817.997	10.12
818.74	7.12
819.482	6.12
820.225	8.12
820.967	7.12
821.71	7.12
822.452	5.12
823.194	7.12
823.936	5.12
824.678	6.12
825.42	7.12
826.162	6.12
826.904	5.12
827.646	7.12
828.388	7.12
829.129	7.12
829.871	7.12
830.612	4.12
831.354	5.12
832.095	6.12
832.836	5.12
833.577	8.12
834.319	4.12
835.06	5.12
835.801	7.12
836.542	5.12
837.282	6.12
838.023	5.12
838.764	6.12
839.504	6.12
840.245	6.12
840.985	4.12
841.726	7.12
842.466	5.12
843.206	6.12
843.946	6.12
844.687	2.12
845.427	4.12
846.166	4.12
846.906	5.12
847.646	4.12
848.386	2.12
849.125	5.12
849.865	4.12
850.605	3.12
851.344	6.12
852.083	5.12
852.823	5.12
853.562	2.12
854.301	3.12
855.04	2.12
855.779	3.12
856.518	2.12
857.257	3.12
857.995	4.12
858.734	4.12
859.473	5.12
860.211	1.12
860.95	2.12
861.688	3.12
862.426	2.12
863.165	3.12
863.903	1.12
864.641	3.12
865.379	2.12
866.117	3.12
866.855	2.12
867.593	0.12
868.33	1.12
869.068	2.12
869.806	1.12
870.543	1.12
871.28	1.12
872.018	3.12
872.755	0.12
873.492	1.12
874.229	2.12
874.967	1.12
875.703	2.12
876.44	1.12
877.177	2.12
877.914	1.12
878.651	2.12
879.387	3.12
880.124	0.12
880.86	2.12
881.597	1.12
882.333	-0.88
883.069	3.12
883.806	0.12
884.542	1.12
885.278	0.12
886.014	3.12
886.749	-0.88
887.485	-0.88
888.221	0.12
888.957	-0.88
889.692	0.12
890.428	2.12
891.163	2.12
891.899	1.12
892.634	2.12
893.369	1.12
894.104	-1.88
894.839	1.12
895.574	-1.88
896.309	0.12
897.044	0.12
897.779	0.12
898.514	2.12
899.248	-2.88
899.983	1.12
900.717	1.12
901.452	-1.88
902.186	1.12
902.92	1.12
903.654	1.12
904.389	3.12
905.123	0.12
905.857	0.12
906.59	-0.88
907.324	1.12
908.058	-0.88
908.792	-0.88
909.525	2.12
910.259	2.12
910.992	0.12
911.726	0.12
912.459	0.12
913.192	-1.88
913.925	1.12
914.658	-1.88
915.391	-1.88
916.124	0.12
916.857	-0.88
917.59	2.12
918.323	0.12
919.055	-1.88
919.788	0.12
920.521	-1.88
921.253	0.12
921.985	-1.88
922.718	0.12
923.45	-0.88
924.182	1.12
924.914	2.12
925.646	0.12
926.378	0.12
927.11	2.12
927.841	1.12
928.573	0.12
929.305	-1.88
930.036	1.12
930.768	0.12
931.499	-0.88
932.23	1.12
932.962	-0.88
933.693	0.12
934.424	-1.88
935.155	0.12
935.886	0.12
936.617	0.12
937.348	-0.88
938.078	0.12
938.809	-0.88
939.54	-1.88
940.27	0.12
941.001	-1.88
941.731	-0.88
942.461	-1.88
943.191	0.12
943.922	1.12
944.652	-2.88
945.382	1.12
946.112	0.12
946.841	0.12
947.571	0.12
948.301	2.12
949.031	2.12
949.76	-0.88
950.49	0.12
951.219	1.12
951.948	-1.88
952.678	-0.88
953.407	1.12
954.136	-0.88
954.865	-1.88
955.594	0.12
956.323	0.12
957.052	-2.88
957.78	-0.88
958.509	-0.88
959.238	-0.88
959.966	-0.88
960.695	-0.88
961.423	-0.88
962.151	-0.88
962.88	0.12
963.608	-1.88
964.336	-0.88
965.064	2.12
965.792	-0.88
966.52	-1.88
967.247	-0.88
967.975	0.12
968.703	-0.88
969.43	-3.88
970.158	1.12
970.885	-2.88
971.613	-1.88
972.34	-1.88
973.067	0.12
973.794	0.12
974.521	1.12
975.248	0.12
975.975	-2.88
976.702	0.12
977.429	0.12
978.156	-1.88
978.882	2.12
979.609	0.12
980.335	-0.88
981.062	0.12
981.788	1.12
982.514	-0.88
983.24	1.12
983.967	0.12
984.693	0.12
985.419	1.12
986.144	-1.88
986.87	-0.88
987.596	-1.88
988.322	-0.88
989.047	-1.88
989.773	-1.88
990.498	-1.88
991.224	-0.88
991.949	-0.88
992.674	0.12
993.399	0.12
994.124	1.12
994.849	-1.88
995.574	0.12
996.299	1.12
997.024	-0.88
997.749	-1.88
998.473	-1.88
999.198	-1.88
999.922	-0.88
1000.647	-1.88
1001.371	2.12
1002.095	-1.88
1002.82	-0.88
1003.544	0.12
1004.268	6.12
1004.992	3.12
1005.716	2.12
1006.439	4.12
1007.163	3.12
1007.887	6.12
1008.611	0.12
1009.334	0.12
1010.058	0.12
1010.781	-0.88
1011.504	2.12
1012.228	-0.88
1012.951	-0.88
1013.674	0.12
1014.397	0.12
1015.12	1.12
