节点500_705_QEPB04081__547__20-53-43-688.txt的数据

Date: Wed Nov 12 20:53:43 CST 2025
User: PC
Spectrometer: QEPB0408
触发模式: 0
积分时间 (秒): 1.000000E-2
Scans to average: 1
启用暗噪声校正: true
启用非线性校正: false
滑动平均宽度: 0
X轴模式: Wavelengths
Number of Pixels in Spectrum: 1044
>>>>>Begin Spectral Data<<<<<
220.843	5.12
221.644	6.12
222.444	5.12
223.244	6.12
224.045	8.12
224.845	4.12
225.645	7.12
226.445	6.12
227.245	6.12
228.045	7.12
228.845	7.12
229.645	8.12
230.444	9.12
231.244	9.12
232.043	10.12
232.843	7.12
233.642	8.12
234.442	8.12
235.241	10.12
236.04	11.12
236.839	9.12
237.638	11.12
238.437	9.12
239.236	12.12
240.035	13.12
240.833	11.12
241.632	11.12
242.43	10.12
243.229	14.12
244.027	12.12
244.826	15.12
245.624	13.12
246.422	13.12
247.22	15.12
248.018	14.12
248.816	13.12
249.614	15.12
250.412	14.12
251.21	14.12
252.007	16.12
252.805	18.12
253.602	12.12
254.4	19.12
255.197	17.12
255.994	15.12
256.791	18.12
257.589	21.12
258.386	20.12
259.183	19.12
259.979	19.12
260.776	21.12
261.573	21.12
262.37	20.12
263.166	19.12
263.963	25.12
264.759	24.12
265.556	22.12
266.352	23.12
267.148	27.12
267.944	26.12
268.74	28.12
269.536	26.12
270.332	27.12
271.128	27.12
271.924	27.12
272.719	31.12
273.515	29.12
274.311	29.12
275.106	29.12
275.901	30.12
276.697	32.12
277.492	28.12
278.287	34.12
279.082	33.12
279.877	31.12
280.672	32.12
281.467	32.12
282.262	29.12
283.056	35.12
283.851	33.12
284.646	34.12
285.44	34.12
286.234	31.12
287.029	34.12
287.823	33.12
288.617	32.12
289.411	30.12
290.205	30.12
290.999	30.12
291.793	35.12
292.587	33.12
293.381	26.12
294.174	31.12
294.968	28.12
295.761	28.12
296.555	28.12
297.348	25.12
298.141	24.12
298.935	31.12
299.728	27.12
300.521	24.12
301.314	25.12
302.107	26.12
302.899	23.12
303.692	22.12
304.485	20.12
305.277	24.12
306.07	22.12
306.862	21.12
307.655	20.12
308.447	21.12
309.239	21.12
310.031	19.12
310.823	20.12
311.615	20.12
312.407	17.12
313.199	15.12
313.991	17.12
314.783	16.12
315.574	16.12
316.366	18.12
317.157	17.12
317.949	15.12
318.74	16.12
319.531	15.12
320.322	14.12
321.113	15.12
321.904	16.12
322.695	15.12
323.486	13.12
324.277	14.12
325.068	15.12
325.858	15.12
326.649	13.12
327.439	14.12
328.23	10.12
329.02	15.12
329.81	13.12
330.6	13.12
331.391	11.12
332.181	14.12
332.971	12.12
333.76	13.12
334.55	14.12
335.34	12.12
336.13	12.12
336.919	11.12
337.709	12.12
338.498	11.12
339.287	11.12
340.077	9.12
340.866	12.12
341.655	11.12
342.444	13.12
343.233	11.12
344.022	12.12
344.811	13.12
345.6	13.12
346.388	11.12
347.177	13.12
347.965	11.12
348.754	11.12
349.542	13.12
350.33	11.12
351.119	10.12
351.907	11.12
352.695	12.12
353.483	11.12
354.271	8.12
355.059	10.12
355.846	11.12
356.634	12.12
357.422	10.12
358.209	12.12
358.997	10.12
359.784	11.12
360.571	9.12
361.359	11.12
362.146	10.12
362.933	7.12
363.72	10.12
364.507	10.12
365.294	10.12
366.081	12.12
366.867	7.12
367.654	11.12
368.44	10.12
369.227	11.12
370.013	11.12
370.8	10.12
371.586	9.12
372.372	9.12
373.158	9.12
373.944	11.12
374.73	11.12
375.516	9.12
376.302	10.12
377.088	8.12
377.873	8.12
378.659	10.12
379.445	10.12
380.23	8.12
381.015	11.12
381.801	6.12
382.586	9.12
383.371	10.12
384.156	12.12
384.941	10.12
385.726	9.12
386.511	9.12
387.296	12.12
388.08	13.12
388.865	10.12
389.649	11.12
390.434	11.12
391.218	9.12
392.003	14.12
392.787	11.12
393.571	12.12
394.355	14.12
395.139	12.12
395.923	10.12
396.707	11.12
397.491	13.12
398.274	10.12
399.058	13.12
399.842	13.12
400.625	12.12
401.408	13.12
402.192	11.12
402.975	13.12
403.758	15.12
404.541	18.12
405.324	15.12
406.107	14.12
406.89	14.12
407.673	16.12
408.456	17.12
409.238	15.12
410.021	15.12
410.803	15.12
411.586	19.12
412.368	17.12
413.151	17.12
413.933	20.12
414.715	18.12
415.497	18.12
416.279	18.12
417.061	17.12
417.843	22.12
418.624	20.12
419.406	18.12
420.188	20.12
420.969	21.12
421.751	20.12
422.532	22.12
423.313	21.12
424.095	23.12
424.876	23.12
425.657	26.12
426.438	24.12
427.219	28.12
428	26.12
428.78	24.12
429.561	28.12
430.342	31.12
431.122	33.12
431.903	33.12
432.683	32.12
433.464	33.12
434.244	35.12
435.024	38.12
435.804	39.12
436.584	44.12
437.364	40.12
438.144	50.12
438.924	52.12
439.704	54.12
440.483	60.12
441.263	67.12
442.042	66.12
442.822	71.12
443.601	77.12
444.38	84.12
445.16	85.12
445.939	101.12
446.718	109.12
447.497	123.12
448.276	128.12
449.054	139.12
449.833	155.12
450.612	167.12
451.391	185.12
452.169	211.12
452.948	230.12
453.726	255.12
454.504	290.12
455.282	316.12
456.061	351.12
456.839	398.12
457.617	449.12
458.395	495.12
459.172	547.12
459.95	588.12
460.728	656.12
461.506	750.12
462.283	830.12
463.061	930.12
463.838	1027.12
464.615	1124.12
465.393	1254.12
466.17	1395.12
466.947	1544.12
467.724	1685.12
468.501	1861.12
469.278	2086.12
470.055	2276.12
470.831	2507.12
471.608	2762.12
472.385	3045.12
473.161	3314.12
473.938	3622.12
474.714	3960.12
475.49	4350.12
476.266	4724.12
477.043	5132.12
477.819	5611.12
478.595	6117.12
479.371	6648.12
480.146	7238.12
480.922	7837.12
481.698	8492.12
482.473	9182.12
483.249	9964.12
484.024	10801.12
484.8	11675.12
485.575	12547.12
486.35	13577.12
487.126	14646.12
487.901	15747.12
488.676	16960.12
489.451	18279.12
490.225	19574.12
491	20991.12
491.775	22365.12
492.55	23899.12
493.324	25465.12
494.099	26984.12
494.873	28576.12
495.647	30199.12
496.422	31821.12
497.196	33372.12
497.97	35018.12
498.744	36421.12
499.518	38066.12
500.292	39392.12
501.066	40446.12
501.839	41367.12
502.613	42394.12
503.387	43190.12
504.16	43682.12
504.934	44121.12
505.707	44248.12
506.48	44194.12
507.253	43942.12
508.027	43570.12
508.8	42969.12
509.573	42195.12
510.346	41476.12
511.118	40625.12
511.891	39572.12
512.664	38283.12
513.437	37042.12
514.209	35787.12
514.982	34553.12
515.754	33245.12
516.526	31926.12
517.298	30686.12
518.071	29615.12
518.843	28446.12
519.615	27241.12
520.387	26226.12
521.159	25200.12
521.93	24165.12
522.702	23097.12
523.474	22193.12
524.245	21358.12
525.017	20465.12
525.788	19571.12
526.56	18816.12
527.331	18040.12
528.102	17125.12
528.873	16310.12
529.644	15533.12
530.415	14829.12
531.186	14125.12
531.957	13396.12
532.728	12801.12
533.498	12141.12
534.269	11528.12
535.039	10874.12
535.81	10344.12
536.58	9786.12
537.351	9257.12
538.121	8785.12
538.891	8335.12
539.661	7877.12
540.431	7437.12
541.201	7092.12
541.971	6725.12
542.741	6326.12
543.51	6009.12
544.28	5741.12
545.05	5460.12
545.819	5230.12
546.588	4994.12
547.358	4743.12
548.127	4496.12
548.896	4263.12
549.665	4037.12
550.434	3873.12
551.203	3657.12
551.972	3473.12
552.741	3297.12
553.51	3099.12
554.278	2932.12
555.047	2775.12
555.815	2628.12
556.584	2484.12
557.352	2340.12
558.121	2234.12
558.889	2089.12
559.657	2007.12
560.425	1882.12
561.193	1773.12
561.961	1686.12
562.729	1585.12
563.496	1506.12
564.264	1428.12
565.032	1357.12
565.799	1272.12
566.567	1198.12
567.334	1140.12
568.101	1077.12
568.869	1020.12
569.636	965.12
570.403	901.12
571.17	859.12
571.937	802.12
572.704	762.12
573.471	721.12
574.237	673.12
575.004	638.12
575.771	600.12
576.537	575.12
577.303	540.12
578.07	512.12
578.836	481.12
579.602	450.12
580.368	436.12
581.134	413.12
581.9	392.12
582.666	376.12
583.432	359.12
584.198	339.12
584.964	322.12
585.729	302.12
586.495	293.12
587.26	272.12
588.025	254.12
588.791	246.12
589.556	229.12
590.321	218.12
591.086	206.12
591.851	198.12
592.616	189.12
593.381	178.12
594.146	168.12
594.911	164.12
595.675	158.12
596.44	150.12
597.204	142.12
597.969	137.12
598.733	130.12
599.497	124.12
600.261	117.12
601.025	116.12
601.79	105.12
602.553	106.12
603.317	97.12
604.081	94.12
604.845	93.12
605.609	90.12
606.372	83.12
607.136	79.12
607.899	77.12
608.662	76.12
609.426	71.12
610.189	67.12
610.952	71.12
611.715	65.12
612.478	63.12
613.241	61.12
614.004	56.12
614.767	56.12
615.529	54.12
616.292	52.12
617.055	50.12
617.817	50.12
618.579	49.12
619.342	45.12
620.104	44.12
620.866	40.12
621.628	42.12
622.39	39.12
623.152	40.12
623.914	37.12
624.676	37.12
625.438	35.12
626.199	31.12
626.961	33.12
627.722	31.12
628.484	33.12
629.245	29.12
630.006	32.12
630.768	30.12
631.529	28.12
632.29	28.12
633.051	29.12
633.812	25.12
634.573	24.12
635.333	21.12
636.094	24.12
636.855	20.12
637.615	23.12
638.376	22.12
639.136	22.12
639.896	19.12
640.657	20.12
641.417	19.12
642.177	15.12
642.937	19.12
643.697	18.12
644.457	16.12
645.216	19.12
645.976	14.12
646.736	16.12
647.495	18.12
648.255	16.12
649.014	15.12
649.774	16.12
650.533	14.12
651.292	12.12
652.051	16.12
652.81	12.12
653.569	17.12
654.328	15.12
655.087	15.12
655.846	13.12
656.604	12.12
657.363	13.12
658.121	13.12
658.88	9.12
659.638	14.12
660.397	13.12
661.155	10.12
661.913	11.12
662.671	12.12
663.429	11.12
664.187	9.12
664.945	9.12
665.703	7.12
666.46	11.12
667.218	7.12
667.976	9.12
668.733	9.12
669.49	9.12
670.248	13.12
671.005	9.12
671.762	8.12
672.519	9.12
673.276	8.12
674.033	11.12
674.79	7.12
675.547	8.12
676.304	6.12
677.06	10.12
677.817	7.12
678.574	9.12
679.33	9.12
680.086	8.12
680.843	10.12
681.599	10.12
682.355	9.12
683.111	8.12
683.867	9.12
684.623	7.12
685.379	7.12
686.135	11.12
686.89	11.12
687.646	7.12
688.402	7.12
689.157	8.12
689.912	9.12
690.668	8.12
691.423	8.12
692.178	10.12
692.933	7.12
693.688	10.12
694.443	9.12
695.198	9.12
695.953	8.12
696.708	7.12
697.462	10.12
698.217	7.12
698.972	6.12
699.726	7.12
700.48	6.12
701.235	9.12
701.989	7.12
702.743	7.12
703.497	6.12
704.251	4.12
705.005	6.12
705.759	7.12
706.513	9.12
707.266	7.12
708.02	9.12
708.774	7.12
709.527	9.12
710.28	6.12
711.034	7.12
711.787	6.12
712.54	7.12
713.293	7.12
714.046	8.12
714.799	7.12
715.552	6.12
716.305	6.12
717.058	6.12
717.81	6.12
718.563	8.12
719.315	8.12
720.068	5.12
720.82	9.12
721.573	8.12
722.325	8.12
723.077	7.12
723.829	10.12
724.581	10.12
725.333	8.12
726.085	9.12
726.836	9.12
727.588	5.12
728.34	8.12
729.091	10.12
729.843	8.12
730.594	7.12
731.346	8.12
732.097	8.12
732.848	9.12
733.599	8.12
734.35	9.12
735.101	8.12
735.852	9.12
736.603	11.12
737.354	8.12
738.104	11.12
738.855	10.12
739.605	12.12
740.356	8.12
741.106	9.12
741.856	9.12
742.607	9.12
743.357	8.12
744.107	11.12
744.857	9.12
745.607	9.12
746.357	10.12
747.106	9.12
747.856	9.12
748.606	11.12
749.355	10.12
750.105	7.12
750.854	9.12
751.603	8.12
752.353	11.12
753.102	11.12
753.851	10.12
754.6	10.12
755.349	8.12
756.098	11.12
756.847	14.12
757.595	10.12
758.344	10.12
759.093	8.12
759.841	11.12
760.589	11.12
761.338	13.12
762.086	12.12
762.834	12.12
763.582	14.12
764.331	13.12
765.079	13.12
765.826	12.12
766.574	13.12
767.322	12.12
768.07	14.12
768.817	15.12
769.565	12.12
770.312	14.12
771.06	13.12
771.807	14.12
772.554	14.12
773.302	13.12
774.049	14.12
774.796	12.12
775.543	15.12
776.29	15.12
777.036	14.12
777.783	15.12
778.53	14.12
779.276	14.12
780.023	16.12
780.769	15.12
781.516	17.12
782.262	14.12
783.008	14.12
783.754	15.12
784.5	13.12
785.246	13.12
785.992	15.12
786.738	15.12
787.484	15.12
788.23	18.12
788.975	15.12
789.721	17.12
790.466	14.12
791.212	14.12
791.957	15.12
792.702	15.12
793.447	13.12
794.193	13.12
794.938	14.12
795.683	14.12
796.427	11.12
797.172	13.12
797.917	14.12
798.662	13.12
799.406	13.12
800.151	11.12
800.895	11.12
801.64	11.12
802.384	14.12
803.128	11.12
803.872	11.12
804.616	13.12
805.36	13.12
806.104	13.12
806.848	10.12
807.592	12.12
808.336	11.12
809.079	10.12
809.823	11.12
810.566	10.12
811.31	11.12
812.053	9.12
812.796	9.12
813.539	11.12
814.283	8.12
815.026	9.12
815.769	8.12
816.511	8.12
817.254	8.12
817.997	9.12
818.74	10.12
819.482	7.12
820.225	8.12
820.967	7.12
821.71	6.12
822.452	8.12
823.194	8.12
823.936	4.12
824.678	7.12
825.42	6.12
826.162	6.12
826.904	6.12
827.646	7.12
828.388	8.12
829.129	6.12
829.871	7.12
830.612	8.12
831.354	5.12
832.095	4.12
832.836	5.12
833.577	7.12
834.319	7.12
835.06	7.12
835.801	8.12
836.542	8.12
837.282	5.12
838.023	6.12
838.764	5.12
839.504	6.12
840.245	7.12
840.985	6.12
841.726	6.12
842.466	7.12
843.206	5.12
843.946	5.12
844.687	7.12
845.427	5.12
846.166	4.12
846.906	6.12
847.646	4.12
848.386	6.12
849.125	4.12
849.865	6.12
850.605	6.12
851.344	3.12
852.083	5.12
852.823	3.12
853.562	6.12
854.301	4.12
855.04	6.12
855.779	5.12
856.518	3.12
857.257	4.12
857.995	5.12
858.734	2.12
859.473	5.12
860.211	2.12
860.95	4.12
861.688	3.12
862.426	5.12
863.165	3.12
863.903	2.12
864.641	4.12
865.379	0.12
866.117	4.12
866.855	4.12
867.593	3.12
868.33	3.12
869.068	4.12
869.806	3.12
870.543	2.12
871.28	3.12
872.018	2.12
872.755	3.12
873.492	2.12
874.229	3.12
874.967	4.12
875.703	2.12
876.44	2.12
877.177	3.12
877.914	4.12
878.651	2.12
879.387	3.12
880.124	2.12
880.86	1.12
881.597	1.12
882.333	2.12
883.069	-0.88
883.806	2.12
884.542	1.12
885.278	4.12
886.014	1.12
886.749	0.12
887.485	2.12
888.221	3.12
888.957	2.12
889.692	1.12
890.428	0.12
891.163	1.12
891.899	0.12
892.634	3.12
893.369	1.12
894.104	1.12
894.839	1.12
895.574	2.12
896.309	1.12
897.044	0.12
897.779	4.12
898.514	-0.88
899.248	2.12
899.983	2.12
900.717	1.12
901.452	0.12
902.186	1.12
902.92	1.12
903.654	2.12
904.389	2.12
905.123	1.12
905.857	2.12
906.59	1.12
907.324	2.12
908.058	2.12
908.792	2.12
909.525	2.12
910.259	-0.88
910.992	-0.88
911.726	1.12
912.459	0.12
913.192	1.12
913.925	2.12
914.658	0.12
915.391	0.12
916.124	2.12
916.857	1.12
917.59	0.12
918.323	-0.88
919.055	-0.88
919.788	0.12
920.521	2.12
921.253	0.12
921.985	0.12
922.718	0.12
923.45	0.12
924.182	1.12
924.914	1.12
925.646	2.12
926.378	0.12
927.11	4.12
927.841	0.12
928.573	2.12
929.305	2.12
930.036	0.12
930.768	1.12
931.499	-0.88
932.23	0.12
932.962	0.12
933.693	1.12
934.424	2.12
935.155	0.12
935.886	2.12
936.617	2.12
937.348	-0.88
938.078	-0.88
938.809	0.12
939.54	1.12
940.27	-1.88
941.001	2.12
941.731	1.12
942.461	-1.88
943.191	0.12
943.922	-0.88
944.652	-0.88
945.382	-1.88
946.112	2.12
946.841	1.12
947.571	0.12
948.301	2.12
949.031	1.12
949.76	1.12
950.49	-0.88
951.219	-0.88
951.948	-1.88
952.678	-0.88
953.407	3.12
954.136	0.12
954.865	0.12
955.594	1.12
956.323	-0.88
957.052	1.12
957.78	-1.88
958.509	-0.88
959.238	0.12
959.966	1.12
960.695	2.12
961.423	-0.88
962.151	1.12
962.88	0.12
963.608	1.12
964.336	3.12
965.064	2.12
965.792	-1.88
966.52	-0.88
967.247	-0.88
967.975	3.12
968.703	2.12
969.43	0.12
970.158	1.12
970.885	2.12
971.613	0.12
972.34	0.12
973.067	-2.88
973.794	1.12
974.521	1.12
975.248	-0.88
975.975	3.12
976.702	-0.88
977.429	0.12
978.156	-1.88
978.882	1.12
979.609	1.12
980.335	-0.88
981.062	1.12
981.788	1.12
982.514	-0.88
983.24	-0.88
983.967	-0.88
984.693	0.12
985.419	1.12
986.144	1.12
986.87	1.12
987.596	0.12
988.322	1.12
989.047	-0.88
989.773	0.12
990.498	1.12
991.224	3.12
991.949	0.12
992.674	-1.88
993.399	1.12
994.124	0.12
994.849	2.12
995.574	-0.88
996.299	0.12
997.024	0.12
997.749	0.12
998.473	2.12
999.198	0.12
999.922	-0.88
1000.647	0.12
1001.371	3.12
1002.095	-1.88
1002.82	-0.88
1003.544	-0.88
1004.268	5.12
1004.992	6.12
1005.716	2.12
1006.439	7.12
1007.163	5.12
1007.887	5.12
1008.611	0.12
1009.334	1.12
1010.058	1.12
1010.781	1.12
1011.504	-0.88
1012.228	3.12
1012.951	-0.88
1013.674	0.12
1014.397	2.12
1015.12	-0.88
