节点500_705_QEPB04081__211__20-48-58-495.txt的数据

Date: Wed Nov 12 20:48:58 CST 2025
User: PC
Spectrometer: QEPB0408
触发模式: 0
积分时间 (秒): 1.000000E-2
Scans to average: 1
启用暗噪声校正: true
启用非线性校正: false
滑动平均宽度: 0
X轴模式: Wavelengths
Number of Pixels in Spectrum: 1044
>>>>>Begin Spectral Data<<<<<
220.843	7.25
221.644	3.25
222.444	9.25
223.244	5.25
224.045	8.25
224.845	7.25
225.645	8.25
226.445	7.25
227.245	7.25
228.045	8.25
228.845	8.25
229.645	9.25
230.444	9.25
231.244	7.25
232.043	9.25
232.843	8.25
233.642	10.25
234.442	9.25
235.241	9.25
236.04	11.25
236.839	10.25
237.638	13.25
238.437	13.25
239.236	11.25
240.035	11.25
240.833	14.25
241.632	9.25
242.43	11.25
243.229	11.25
244.027	14.25
244.826	13.25
245.624	9.25
246.422	14.25
247.22	19.25
248.018	16.25
248.816	14.25
249.614	18.25
250.412	15.25
251.21	18.25
252.007	19.25
252.805	19.25
253.602	17.25
254.4	20.25
255.197	20.25
255.994	19.25
256.791	24.25
257.589	24.25
258.386	23.25
259.183	24.25
259.979	22.25
260.776	25.25
261.573	24.25
262.37	25.25
263.166	26.25
263.963	26.25
264.759	28.25
265.556	26.25
266.352	32.25
267.148	28.25
267.944	28.25
268.74	29.25
269.536	31.25
270.332	32.25
271.128	31.25
271.924	30.25
272.719	31.25
273.515	33.25
274.311	34.25
275.106	32.25
275.901	31.25
276.697	32.25
277.492	32.25
278.287	36.25
279.082	33.25
279.877	34.25
280.672	34.25
281.467	37.25
282.262	35.25
283.056	37.25
283.851	35.25
284.646	37.25
285.44	33.25
286.234	35.25
287.029	33.25
287.823	36.25
288.617	32.25
289.411	36.25
290.205	35.25
290.999	31.25
291.793	27.25
292.587	34.25
293.381	32.25
294.174	30.25
294.968	32.25
295.761	28.25
296.555	26.25
297.348	26.25
298.141	26.25
298.935	29.25
299.728	26.25
300.521	23.25
301.314	24.25
302.107	25.25
302.899	24.25
303.692	24.25
304.485	21.25
305.277	22.25
306.07	25.25
306.862	21.25
307.655	22.25
308.447	22.25
309.239	18.25
310.031	21.25
310.823	19.25
311.615	19.25
312.407	18.25
313.199	19.25
313.991	16.25
314.783	16.25
315.574	18.25
316.366	15.25
317.157	15.25
317.949	12.25
318.74	13.25
319.531	18.25
320.322	12.25
321.113	16.25
321.904	13.25
322.695	15.25
323.486	13.25
324.277	14.25
325.068	12.25
325.858	13.25
326.649	14.25
327.439	13.25
328.23	11.25
329.02	11.25
329.81	12.25
330.6	13.25
331.391	11.25
332.181	15.25
332.971	11.25
333.76	11.25
334.55	13.25
335.34	12.25
336.13	12.25
336.919	11.25
337.709	12.25
338.498	12.25
339.287	10.25
340.077	12.25
340.866	13.25
341.655	12.25
342.444	12.25
343.233	12.25
344.022	15.25
344.811	10.25
345.6	13.25
346.388	11.25
347.177	11.25
347.965	13.25
348.754	10.25
349.542	12.25
350.33	10.25
351.119	13.25
351.907	10.25
352.695	9.25
353.483	10.25
354.271	10.25
355.059	11.25
355.846	11.25
356.634	10.25
357.422	11.25
358.209	9.25
358.997	9.25
359.784	11.25
360.571	10.25
361.359	11.25
362.146	11.25
362.933	11.25
363.72	12.25
364.507	11.25
365.294	10.25
366.081	12.25
366.867	10.25
367.654	11.25
368.44	11.25
369.227	9.25
370.013	13.25
370.8	9.25
371.586	10.25
372.372	9.25
373.158	10.25
373.944	11.25
374.73	9.25
375.516	11.25
376.302	8.25
377.088	12.25
377.873	10.25
378.659	11.25
379.445	9.25
380.23	9.25
381.015	8.25
381.801	8.25
382.586	10.25
383.371	12.25
384.156	12.25
384.941	9.25
385.726	9.25
386.511	12.25
387.296	11.25
388.08	10.25
388.865	9.25
389.649	11.25
390.434	12.25
391.218	13.25
392.003	12.25
392.787	13.25
393.571	12.25
394.355	14.25
395.139	11.25
395.923	14.25
396.707	13.25
397.491	11.25
398.274	14.25
399.058	13.25
399.842	13.25
400.625	10.25
401.408	15.25
402.192	13.25
402.975	13.25
403.758	16.25
404.541	13.25
405.324	15.25
406.107	14.25
406.89	16.25
407.673	19.25
408.456	15.25
409.238	15.25
410.021	16.25
410.803	14.25
411.586	17.25
412.368	18.25
413.151	17.25
413.933	15.25
414.715	17.25
415.497	20.25
416.279	19.25
417.061	20.25
417.843	17.25
418.624	19.25
419.406	19.25
420.188	21.25
420.969	22.25
421.751	22.25
422.532	22.25
423.313	24.25
424.095	25.25
424.876	27.25
425.657	22.25
426.438	26.25
427.219	27.25
428	26.25
428.78	26.25
429.561	27.25
430.342	28.25
431.122	31.25
431.903	31.25
432.683	35.25
433.464	35.25
434.244	38.25
435.024	38.25
435.804	39.25
436.584	43.25
437.364	47.25
438.144	49.25
438.924	49.25
439.704	53.25
440.483	55.25
441.263	59.25
442.042	62.25
442.822	67.25
443.601	72.25
444.38	78.25
445.16	88.25
445.939	96.25
446.718	102.25
447.497	107.25
448.276	116.25
449.054	127.25
449.833	141.25
450.612	155.25
451.391	167.25
452.169	194.25
452.948	207.25
453.726	231.25
454.504	264.25
455.282	288.25
456.061	325.25
456.839	357.25
457.617	408.25
458.395	447.25
459.172	495.25
459.95	559.25
460.728	620.25
461.506	690.25
462.283	767.25
463.061	856.25
463.838	954.25
464.615	1065.25
465.393	1195.25
466.17	1332.25
466.947	1491.25
467.724	1629.25
468.501	1840.25
469.278	2025.25
470.055	2258.25
470.831	2482.25
471.608	2724.25
472.385	3039.25
473.161	3366.25
473.938	3696.25
474.714	4067.25
475.49	4494.25
476.266	4905.25
477.043	5412.25
477.819	5919.25
478.595	6467.25
479.371	7101.25
480.146	7731.25
480.922	8520.25
481.698	9290.25
482.473	10109.25
483.249	11028.25
484.024	12031.25
484.8	13043.25
485.575	14206.25
486.35	15429.25
487.126	16697.25
487.901	18141.25
488.676	19513.25
489.451	21164.25
490.225	22718.25
491	24400.25
491.775	26182.25
492.55	27974.25
493.324	29824.25
494.099	31666.25
494.873	33575.25
495.647	35405.25
496.422	37327.25
497.196	39133.25
497.97	40827.25
498.744	42346.25
499.518	44017.25
500.292	45196.25
501.066	46286.25
501.839	47151.25
502.613	47772.25
503.387	48288.25
504.16	48539.25
504.934	48522.25
505.707	48291.25
506.48	47796.25
507.253	47253.25
508.027	46277.25
508.8	45256.25
509.573	44180.25
510.346	42875.25
511.118	41737.25
511.891	40279.25
512.664	38707.25
513.437	37169.25
514.209	35781.25
514.982	34340.25
515.754	32870.25
516.526	31531.25
517.298	30254.25
518.071	28968.25
518.843	27901.25
519.615	26711.25
520.387	25719.25
521.159	24640.25
521.93	23585.25
522.702	22671.25
523.474	21655.25
524.245	20706.25
525.017	19817.25
525.788	18961.25
526.56	18098.25
527.331	17270.25
528.102	16361.25
528.873	15565.25
529.644	14804.25
530.415	14108.25
531.186	13461.25
531.957	12709.25
532.728	12019.25
533.498	11375.25
534.269	10755.25
535.039	10189.25
535.81	9653.25
536.58	9103.25
537.351	8643.25
538.121	8194.25
538.891	7744.25
539.661	7324.25
540.431	6914.25
541.201	6555.25
541.971	6222.25
542.741	5915.25
543.51	5587.25
544.28	5311.25
545.05	5060.25
545.819	4855.25
546.588	4613.25
547.358	4388.25
548.127	4179.25
548.896	3965.25
549.665	3743.25
550.434	3534.25
551.203	3351.25
551.972	3174.25
552.741	3004.25
553.51	2833.25
554.278	2679.25
555.047	2540.25
555.815	2389.25
556.584	2250.25
557.352	2145.25
558.121	2017.25
558.889	1898.25
559.657	1785.25
560.425	1696.25
561.193	1612.25
561.961	1526.25
562.729	1451.25
563.496	1361.25
564.264	1287.25
565.032	1215.25
565.799	1160.25
566.567	1098.25
567.334	1038.25
568.101	985.25
568.869	919.25
569.636	872.25
570.403	831.25
571.17	769.25
571.937	725.25
572.704	694.25
573.471	655.25
574.237	615.25
575.004	583.25
575.771	547.25
576.537	511.25
577.303	488.25
578.07	466.25
578.836	432.25
579.602	416.25
580.368	386.25
581.134	370.25
581.9	359.25
582.666	340.25
583.432	317.25
584.198	309.25
584.964	290.25
585.729	273.25
586.495	265.25
587.26	240.25
588.025	233.25
588.791	220.25
589.556	211.25
590.321	195.25
591.086	190.25
591.851	179.25
592.616	171.25
593.381	167.25
594.146	151.25
594.911	148.25
595.675	146.25
596.44	135.25
597.204	127.25
597.969	125.25
598.733	121.25
599.497	113.25
600.261	102.25
601.025	104.25
601.79	99.25
602.553	95.25
603.317	92.25
604.081	87.25
604.845	86.25
605.609	83.25
606.372	79.25
607.136	70.25
607.899	75.25
608.662	74.25
609.426	67.25
610.189	65.25
610.952	58.25
611.715	62.25
612.478	59.25
613.241	57.25
614.004	52.25
614.767	52.25
615.529	50.25
616.292	49.25
617.055	48.25
617.817	44.25
618.579	43.25
619.342	43.25
620.104	39.25
620.866	41.25
621.628	37.25
622.39	39.25
623.152	35.25
623.914	35.25
624.676	32.25
625.438	30.25
626.199	33.25
626.961	35.25
627.722	28.25
628.484	31.25
629.245	27.25
630.006	28.25
630.768	24.25
631.529	26.25
632.29	24.25
633.051	25.25
633.812	23.25
634.573	23.25
635.333	24.25
636.094	21.25
636.855	23.25
637.615	21.25
638.376	21.25
639.136	22.25
639.896	19.25
640.657	19.25
641.417	18.25
642.177	21.25
642.937	17.25
643.697	15.25
644.457	19.25
645.216	17.25
645.976	15.25
646.736	15.25
647.495	14.25
648.255	17.25
649.014	15.25
649.774	18.25
650.533	14.25
651.292	13.25
652.051	16.25
652.81	15.25
653.569	14.25
654.328	11.25
655.087	13.25
655.846	13.25
656.604	11.25
657.363	13.25
658.121	12.25
658.88	11.25
659.638	10.25
660.397	13.25
661.155	9.25
661.913	10.25
662.671	11.25
663.429	11.25
664.187	10.25
664.945	8.25
665.703	8.25
666.46	9.25
667.218	12.25
667.976	11.25
668.733	11.25
669.49	11.25
670.248	8.25
671.005	12.25
671.762	11.25
672.519	9.25
673.276	8.25
674.033	11.25
674.79	9.25
675.547	9.25
676.304	6.25
677.06	9.25
677.817	8.25
678.574	8.25
679.33	8.25
680.086	9.25
680.843	10.25
681.599	9.25
682.355	9.25
683.111	8.25
683.867	9.25
684.623	9.25
685.379	8.25
686.135	7.25
686.89	8.25
687.646	11.25
688.402	9.25
689.157	7.25
689.912	7.25
690.668	9.25
691.423	7.25
692.178	7.25
692.933	10.25
693.688	8.25
694.443	4.25
695.198	6.25
695.953	7.25
696.708	7.25
697.462	8.25
698.217	8.25
698.972	6.25
699.726	9.25
700.48	9.25
701.235	10.25
701.989	7.25
702.743	9.25
703.497	8.25
704.251	9.25
705.005	8.25
705.759	7.25
706.513	8.25
707.266	7.25
708.02	7.25
708.774	9.25
709.527	7.25
710.28	11.25
711.034	8.25
711.787	8.25
712.54	6.25
713.293	7.25
714.046	7.25
714.799	8.25
715.552	8.25
716.305	8.25
717.058	8.25
717.81	9.25
718.563	10.25
719.315	7.25
720.068	9.25
720.82	8.25
721.573	5.25
722.325	9.25
723.077	8.25
723.829	9.25
724.581	8.25
725.333	8.25
726.085	9.25
726.836	7.25
727.588	9.25
728.34	8.25
729.091	8.25
729.843	8.25
730.594	8.25
731.346	12.25
732.097	7.25
732.848	9.25
733.599	10.25
734.35	10.25
735.101	11.25
735.852	9.25
736.603	10.25
737.354	9.25
738.104	9.25
738.855	8.25
739.605	10.25
740.356	12.25
741.106	11.25
741.856	11.25
742.607	10.25
743.357	12.25
744.107	8.25
744.857	9.25
745.607	12.25
746.357	9.25
747.106	12.25
747.856	9.25
748.606	9.25
749.355	12.25
750.105	13.25
750.854	10.25
751.603	11.25
752.353	13.25
753.102	12.25
753.851	12.25
754.6	11.25
755.349	13.25
756.098	13.25
756.847	15.25
757.595	12.25
758.344	12.25
759.093	10.25
759.841	12.25
760.589	12.25
761.338	14.25
762.086	13.25
762.834	14.25
763.582	12.25
764.331	14.25
765.079	15.25
765.826	15.25
766.574	14.25
767.322	17.25
768.07	14.25
768.817	16.25
769.565	15.25
770.312	16.25
771.06	13.25
771.807	15.25
772.554	15.25
773.302	16.25
774.049	15.25
774.796	14.25
775.543	15.25
776.29	15.25
777.036	16.25
777.783	17.25
778.53	19.25
779.276	17.25
780.023	15.25
780.769	17.25
781.516	17.25
782.262	16.25
783.008	15.25
783.754	16.25
784.5	18.25
785.246	16.25
785.992	18.25
786.738	16.25
787.484	15.25
788.23	16.25
788.975	15.25
789.721	17.25
790.466	17.25
791.212	16.25
791.957	17.25
792.702	15.25
793.447	16.25
794.193	14.25
794.938	15.25
795.683	15.25
796.427	15.25
797.172	12.25
797.917	14.25
798.662	14.25
799.406	15.25
800.151	13.25
800.895	15.25
801.64	12.25
802.384	14.25
803.128	13.25
803.872	12.25
804.616	14.25
805.36	11.25
806.104	10.25
806.848	10.25
807.592	10.25
808.336	13.25
809.079	11.25
809.823	9.25
810.566	10.25
811.31	9.25
812.053	11.25
812.796	11.25
813.539	10.25
814.283	11.25
815.026	12.25
815.769	8.25
816.511	8.25
817.254	10.25
817.997	8.25
818.74	9.25
819.482	8.25
820.225	7.25
820.967	8.25
821.71	6.25
822.452	8.25
823.194	7.25
823.936	8.25
824.678	7.25
825.42	8.25
826.162	9.25
826.904	4.25
827.646	6.25
828.388	8.25
829.129	6.25
829.871	7.25
830.612	5.25
831.354	9.25
832.095	5.25
832.836	5.25
833.577	6.25
834.319	5.25
835.06	7.25
835.801	4.25
836.542	8.25
837.282	6.25
838.023	7.25
838.764	6.25
839.504	6.25
840.245	5.25
840.985	3.25
841.726	6.25
842.466	6.25
843.206	6.25
843.946	7.25
844.687	4.25
845.427	6.25
846.166	6.25
846.906	5.25
847.646	5.25
848.386	4.25
849.125	5.25
849.865	3.25
850.605	7.25
851.344	4.25
852.083	3.25
852.823	4.25
853.562	4.25
854.301	5.25
855.04	5.25
855.779	3.25
856.518	5.25
857.257	4.25
857.995	6.25
858.734	5.25
859.473	4.25
860.211	5.25
860.95	4.25
861.688	6.25
862.426	3.25
863.165	3.25
863.903	3.25
864.641	3.25
865.379	3.25
866.117	2.25
866.855	3.25
867.593	4.25
868.33	4.25
869.068	3.25
869.806	3.25
870.543	2.25
871.28	1.25
872.018	3.25
872.755	4.25
873.492	2.25
874.229	2.25
874.967	2.25
875.703	2.25
876.44	2.25
877.177	3.25
877.914	1.25
878.651	1.25
879.387	1.25
880.124	2.25
880.86	-0.75
881.597	4.25
882.333	0.25
883.069	0.25
883.806	-0.75
884.542	3.25
885.278	0.25
886.014	2.25
886.749	0.25
887.485	2.25
888.221	2.25
888.957	0.25
889.692	1.25
890.428	0.25
891.163	4.25
891.899	4.25
892.634	3.25
893.369	1.25
894.104	0.25
894.839	1.25
895.574	0.25
896.309	1.25
897.044	1.25
897.779	1.25
898.514	3.25
899.248	1.25
899.983	0.25
900.717	1.25
901.452	3.25
902.186	5.25
902.92	1.25
903.654	-0.75
904.389	0.25
905.123	3.25
905.857	-0.75
906.59	0.25
907.324	0.25
908.058	1.25
908.792	0.25
909.525	-0.75
910.259	1.25
910.992	2.25
911.726	1.25
912.459	1.25
913.192	2.25
913.925	1.25
914.658	-0.75
915.391	2.25
916.124	0.25
916.857	0.25
917.59	1.25
918.323	0.25
919.055	-0.75
919.788	2.25
920.521	3.25
921.253	0.25
921.985	1.25
922.718	-0.75
923.45	-0.75
924.182	3.25
924.914	-0.75
925.646	1.25
926.378	0.25
927.11	1.25
927.841	1.25
928.573	0.25
929.305	-0.75
930.036	3.25
930.768	-0.75
931.499	0.25
932.23	1.25
932.962	2.25
933.693	-1.75
934.424	0.25
935.155	1.25
935.886	-0.75
936.617	0.25
937.348	0.25
938.078	1.25
938.809	2.25
939.54	2.25
940.27	2.25
941.001	-0.75
941.731	2.25
942.461	1.25
943.191	1.25
943.922	-1.75
944.652	0.25
945.382	-0.75
946.112	-1.75
946.841	3.25
947.571	1.25
948.301	-0.75
949.031	0.25
949.76	-0.75
950.49	1.25
951.219	-0.75
951.948	1.25
952.678	2.25
953.407	1.25
954.136	0.25
954.865	-0.75
955.594	2.25
956.323	2.25
957.052	0.25
957.78	-0.75
958.509	0.25
959.238	2.25
959.966	0.25
960.695	1.25
961.423	1.25
962.151	-0.75
962.88	2.25
963.608	-0.75
964.336	2.25
965.064	0.25
965.792	0.25
966.52	1.25
967.247	-0.75
967.975	0.25
968.703	1.25
969.43	4.25
970.158	1.25
970.885	-0.75
971.613	-1.75
972.34	0.25
973.067	2.25
973.794	1.25
974.521	2.25
975.248	-0.75
975.975	0.25
976.702	1.25
977.429	0.25
978.156	0.25
978.882	3.25
979.609	0.25
980.335	1.25
981.062	0.25
981.788	1.25
982.514	2.25
983.24	2.25
983.967	0.25
984.693	0.25
985.419	2.25
986.144	1.25
986.87	0.25
987.596	1.25
988.322	1.25
989.047	3.25
989.773	1.25
990.498	0.25
991.224	1.25
991.949	0.25
992.674	0.25
993.399	1.25
994.124	-0.75
994.849	-0.75
995.574	2.25
996.299	1.25
997.024	-0.75
997.749	1.25
998.473	-0.75
999.198	-0.75
999.922	1.25
1000.647	2.25
1001.371	5.25
1002.095	-1.75
1002.82	-1.75
1003.544	-0.75
1004.268	6.25
1004.992	6.25
1005.716	3.25
1006.439	4.25
1007.163	4.25
1007.887	6.25
1008.611	2.25
1009.334	1.25
1010.058	2.25
1010.781	2.25
1011.504	2.25
1012.228	1.25
1012.951	2.25
1013.674	-0.75
1014.397	-1.75
1015.12	-0.75
