节点500_705_QEPB04081__153__20-48-24-087.txt的数据

Date: Wed Nov 12 20:48:24 CST 2025
User: PC
Spectrometer: QEPB0408
触发模式: 0
积分时间 (秒): 1.000000E-2
Scans to average: 1
启用暗噪声校正: true
启用非线性校正: false
滑动平均宽度: 0
X轴模式: Wavelengths
Number of Pixels in Spectrum: 1044
>>>>>Begin Spectral Data<<<<<
220.843	6
221.644	6
222.444	5
223.244	8
224.045	7
224.845	9
225.645	4
226.445	6
227.245	7
228.045	8
228.845	7
229.645	8
230.444	10
231.244	8
232.043	11
232.843	8
233.642	9
234.442	9
235.241	10
236.04	11
236.839	12
237.638	12
238.437	11
239.236	11
240.035	13
240.833	12
241.632	13
242.43	10
243.229	15
244.027	13
244.826	13
245.624	18
246.422	15
247.22	19
248.018	14
248.816	15
249.614	16
250.412	16
251.21	17
252.007	19
252.805	19
253.602	18
254.4	20
255.197	19
255.994	23
256.791	24
257.589	22
258.386	22
259.183	24
259.979	23
260.776	24
261.573	24
262.37	24
263.166	27
263.963	27
264.759	29
265.556	29
266.352	31
267.148	27
267.944	28
268.74	34
269.536	32
270.332	34
271.128	32
271.924	30
272.719	34
273.515	33
274.311	37
275.106	37
275.901	36
276.697	34
277.492	35
278.287	33
279.082	36
279.877	39
280.672	37
281.467	36
282.262	37
283.056	36
283.851	37
284.646	34
285.44	36
286.234	35
287.029	35
287.823	34
288.617	34
289.411	33
290.205	33
290.999	34
291.793	32
292.587	35
293.381	29
294.174	31
294.968	30
295.761	27
296.555	29
297.348	31
298.141	27
298.935	31
299.728	27
300.521	24
301.314	24
302.107	26
302.899	22
303.692	23
304.485	24
305.277	21
306.07	25
306.862	24
307.655	21
308.447	21
309.239	19
310.031	18
310.823	19
311.615	18
312.407	19
313.199	20
313.991	19
314.783	15
315.574	16
316.366	13
317.157	14
317.949	14
318.74	11
319.531	13
320.322	14
321.113	17
321.904	15
322.695	13
323.486	15
324.277	13
325.068	13
325.858	16
326.649	14
327.439	11
328.23	15
329.02	15
329.81	10
330.6	13
331.391	11
332.181	15
332.971	11
333.76	14
334.55	13
335.34	11
336.13	11
336.919	13
337.709	13
338.498	10
339.287	11
340.077	12
340.866	11
341.655	12
342.444	13
343.233	13
344.022	10
344.811	11
345.6	10
346.388	12
347.177	11
347.965	13
348.754	10
349.542	12
350.33	11
351.119	12
351.907	11
352.695	11
353.483	12
354.271	10
355.059	11
355.846	12
356.634	10
357.422	11
358.209	10
358.997	10
359.784	12
360.571	11
361.359	13
362.146	9
362.933	11
363.72	12
364.507	11
365.294	10
366.081	11
366.867	12
367.654	8
368.44	11
369.227	11
370.013	10
370.8	11
371.586	10
372.372	11
373.158	11
373.944	9
374.73	9
375.516	11
376.302	14
377.088	9
377.873	11
378.659	11
379.445	13
380.23	9
381.015	13
381.801	12
382.586	9
383.371	14
384.156	13
384.941	11
385.726	12
386.511	10
387.296	12
388.08	9
388.865	13
389.649	15
390.434	11
391.218	13
392.003	12
392.787	11
393.571	14
394.355	12
395.139	11
395.923	11
396.707	13
397.491	14
398.274	15
399.058	13
399.842	18
400.625	12
401.408	15
402.192	15
402.975	12
403.758	17
404.541	16
405.324	15
406.107	17
406.89	17
407.673	17
408.456	16
409.238	16
410.021	14
410.803	17
411.586	16
412.368	15
413.151	19
413.933	19
414.715	20
415.497	20
416.279	20
417.061	21
417.843	20
418.624	24
419.406	19
420.188	20
420.969	24
421.751	23
422.532	24
423.313	22
424.095	23
424.876	24
425.657	27
426.438	27
427.219	27
428	28
428.78	28
429.561	29
430.342	32
431.122	29
431.903	30
432.683	34
433.464	36
434.244	40
435.024	39
435.804	44
436.584	43
437.364	45
438.144	47
438.924	52
439.704	55
440.483	55
441.263	61
442.042	65
442.822	65
443.601	79
444.38	78
445.16	82
445.939	89
446.718	100
447.497	108
448.276	119
449.054	132
449.833	140
450.612	154
451.391	162
452.169	188
452.948	205
453.726	226
454.504	258
455.282	281
456.061	313
456.839	349
457.617	400
458.395	435
459.172	495
459.95	546
460.728	606
461.506	676
462.283	770
463.061	851
463.838	953
464.615	1056
465.393	1183
466.17	1325
466.947	1455
467.724	1640
468.501	1810
469.278	2015
470.055	2224
470.831	2467
471.608	2749
472.385	3047
473.161	3366
473.938	3676
474.714	4073
475.49	4493
476.266	4958
477.043	5397
477.819	5927
478.595	6525
479.371	7162
480.146	7807
480.922	8576
481.698	9385
482.473	10228
483.249	11162
484.024	12111
484.8	13206
485.575	14381
486.35	15629
487.126	16963
487.901	18327
488.676	19814
489.451	21448
490.225	23107
491	24868
491.775	26618
492.55	28576
493.324	30307
494.099	32170
494.873	34151
495.647	36025
496.422	38008
497.196	39822
497.97	41480
498.744	42938
499.518	44610
500.292	45944
501.066	46914
501.839	47716
502.613	48464
503.387	48873
504.16	49105
504.934	49086
505.707	48790
506.48	48282
507.253	47610
508.027	46629
508.8	45439
509.573	44260
510.346	43025
511.118	41819
511.891	40429
512.664	38760
513.437	37245
514.209	35735
514.982	34324
515.754	32826
516.526	31486
517.298	30250
518.071	28993
518.843	27843
519.615	26705
520.387	25672
521.159	24651
521.93	23592
522.702	22587
523.474	21627
524.245	20707
525.017	19716
525.788	18906
526.56	18063
527.331	17239
528.102	16318
528.873	15492
529.644	14786
530.415	14081
531.186	13409
531.957	12610
532.728	11957
533.498	11309
534.269	10717
535.039	10108
535.81	9558
536.58	9050
537.351	8561
538.121	8124
538.891	7665
539.661	7283
540.431	6905
541.201	6554
541.971	6178
542.741	5863
543.51	5555
544.28	5277
545.05	5012
545.819	4777
546.588	4594
547.358	4348
548.127	4132
548.896	3919
549.665	3714
550.434	3522
551.203	3338
551.972	3133
552.741	3007
553.51	2829
554.278	2670
555.047	2489
555.815	2358
556.584	2245
557.352	2119
558.121	2006
558.889	1887
559.657	1783
560.425	1699
561.193	1601
561.961	1513
562.729	1433
563.496	1346
564.264	1272
565.032	1198
565.799	1156
566.567	1089
567.334	1019
568.101	960
568.869	918
569.636	859
570.403	817
571.17	771
571.937	725
572.704	698
573.471	645
574.237	611
575.004	577
575.771	546
576.537	509
577.303	478
578.07	452
578.836	436
579.602	410
580.368	388
581.134	373
581.9	348
582.666	336
583.432	320
584.198	294
584.964	283
585.729	266
586.495	249
587.26	247
588.025	228
588.791	218
589.556	209
590.321	198
591.086	183
591.851	180
592.616	166
593.381	160
594.146	157
594.911	150
595.675	138
596.44	137
597.204	129
597.969	125
598.733	119
599.497	111
600.261	107
601.025	100
601.79	102
602.553	95
603.317	88
604.081	89
604.845	83
605.609	84
606.372	82
607.136	75
607.899	72
608.662	71
609.426	67
610.189	62
610.952	58
611.715	60
612.478	58
613.241	56
614.004	55
614.767	53
615.529	50
616.292	49
617.055	49
617.817	45
618.579	41
619.342	43
620.104	41
620.866	38
621.628	38
622.39	40
623.152	36
623.914	37
624.676	33
625.438	32
626.199	32
626.961	29
627.722	29
628.484	29
629.245	28
630.006	29
630.768	25
631.529	26
632.29	25
633.051	23
633.812	25
634.573	22
635.333	22
636.094	21
636.855	21
637.615	19
638.376	20
639.136	19
639.896	21
640.657	19
641.417	18
642.177	19
642.937	19
643.697	15
644.457	20
645.216	15
645.976	17
646.736	17
647.495	17
648.255	17
649.014	17
649.774	16
650.533	14
651.292	13
652.051	15
652.81	13
653.569	13
654.328	10
655.087	12
655.846	16
656.604	13
657.363	10
658.121	12
658.88	11
659.638	11
660.397	14
661.155	10
661.913	12
662.671	13
663.429	10
664.187	10
664.945	11
665.703	8
666.46	9
667.218	11
667.976	8
668.733	11
669.49	11
670.248	9
671.005	9
671.762	10
672.519	10
673.276	11
674.033	8
674.79	10
675.547	11
676.304	8
677.06	9
677.817	6
678.574	9
679.33	8
680.086	9
680.843	7
681.599	8
682.355	10
683.111	8
683.867	10
684.623	9
685.379	7
686.135	9
686.89	7
687.646	10
688.402	8
689.157	9
689.912	8
690.668	7
691.423	9
692.178	7
692.933	8
693.688	10
694.443	9
695.198	10
695.953	6
696.708	7
697.462	6
698.217	7
698.972	7
699.726	6
700.48	9
701.235	10
701.989	7
702.743	9
703.497	9
704.251	7
705.005	7
705.759	10
706.513	7
707.266	8
708.02	6
708.774	7
709.527	7
710.28	5
711.034	11
711.787	6
712.54	9
713.293	8
714.046	7
714.799	9
715.552	7
716.305	10
717.058	10
717.81	9
718.563	7
719.315	7
720.068	9
720.82	11
721.573	5
722.325	10
723.077	7
723.829	6
724.581	8
725.333	10
726.085	9
726.836	7
727.588	7
728.34	9
729.091	10
729.843	10
730.594	9
731.346	9
732.097	8
732.848	11
733.599	12
734.35	8
735.101	6
735.852	11
736.603	9
737.354	7
738.104	11
738.855	9
739.605	11
740.356	10
741.106	9
741.856	11
742.607	10
743.357	12
744.107	10
744.857	10
745.607	12
746.357	11
747.106	12
747.856	10
748.606	13
749.355	11
750.105	13
750.854	12
751.603	10
752.353	10
753.102	10
753.851	14
754.6	10
755.349	11
756.098	13
756.847	11
757.595	12
758.344	13
759.093	14
759.841	13
760.589	13
761.338	11
762.086	14
762.834	15
763.582	12
764.331	14
765.079	14
765.826	11
766.574	13
767.322	16
768.07	15
768.817	14
769.565	14
770.312	16
771.06	15
771.807	16
772.554	15
773.302	16
774.049	17
774.796	17
775.543	16
776.29	16
777.036	19
777.783	17
778.53	15
779.276	13
780.023	15
780.769	17
781.516	15
782.262	16
783.008	18
783.754	15
784.5	18
785.246	17
785.992	16
786.738	18
787.484	16
788.23	19
788.975	16
789.721	16
790.466	13
791.212	16
791.957	18
792.702	16
793.447	15
794.193	13
794.938	16
795.683	16
796.427	12
797.172	13
797.917	14
798.662	12
799.406	13
800.151	13
800.895	14
801.64	9
802.384	13
803.128	12
803.872	11
804.616	14
805.36	10
806.104	11
806.848	11
807.592	12
808.336	12
809.079	10
809.823	11
810.566	9
811.31	11
812.053	7
812.796	8
813.539	10
814.283	7
815.026	9
815.769	9
816.511	8
817.254	6
817.997	10
818.74	9
819.482	8
820.225	9
820.967	7
821.71	10
822.452	7
823.194	9
823.936	9
824.678	6
825.42	7
826.162	6
826.904	6
827.646	6
828.388	6
829.129	7
829.871	7
830.612	7
831.354	10
832.095	8
832.836	7
833.577	6
834.319	7
835.06	5
835.801	8
836.542	8
837.282	4
838.023	5
838.764	6
839.504	5
840.245	5
840.985	5
841.726	3
842.466	6
843.206	6
843.946	3
844.687	8
845.427	5
846.166	8
846.906	6
847.646	4
848.386	6
849.125	5
849.865	6
850.605	5
851.344	7
852.083	2
852.823	4
853.562	5
854.301	5
855.04	3
855.779	5
856.518	3
857.257	5
857.995	4
858.734	5
859.473	3
860.211	3
860.95	5
861.688	4
862.426	4
863.165	1
863.903	3
864.641	2
865.379	1
866.117	1
866.855	3
867.593	4
868.33	1
869.068	1
869.806	2
870.543	1
871.28	3
872.018	2
872.755	1
873.492	3
874.229	-1
874.967	3
875.703	1
876.44	2
877.177	0
877.914	3
878.651	4
879.387	1
880.124	3
880.86	2
881.597	1
882.333	4
883.069	2
883.806	2
884.542	3
885.278	3
886.014	3
886.749	2
887.485	2
888.221	2
888.957	2
889.692	1
890.428	3
891.163	2
891.899	1
892.634	1
893.369	0
894.104	1
894.839	-3
895.574	3
896.309	2
897.044	2
897.779	0
898.514	2
899.248	1
899.983	1
900.717	2
901.452	1
902.186	0
902.92	1
903.654	1
904.389	0
905.123	0
905.857	0
906.59	0
907.324	1
908.058	1
908.792	-1
909.525	0
910.259	0
910.992	1
911.726	1
912.459	1
913.192	0
913.925	1
914.658	1
915.391	2
916.124	2
916.857	1
917.59	2
918.323	1
919.055	0
919.788	0
920.521	1
921.253	-1
921.985	1
922.718	2
923.45	1
924.182	2
924.914	2
925.646	1
926.378	-2
927.11	1
927.841	1
928.573	2
929.305	1
930.036	3
930.768	1
931.499	-2
932.23	0
932.962	0
933.693	1
934.424	0
935.155	0
935.886	0
936.617	-1
937.348	2
938.078	2
938.809	1
939.54	1
940.27	1
941.001	-3
941.731	0
942.461	3
943.191	-1
943.922	0
944.652	1
945.382	0
946.112	0
946.841	2
947.571	-1
948.301	0
949.031	0
949.76	1
950.49	2
951.219	3
951.948	-1
952.678	-1
953.407	1
954.136	-1
954.865	3
955.594	1
956.323	-1
957.052	1
957.78	-2
958.509	0
959.238	-3
959.966	1
960.695	1
961.423	1
962.151	0
962.88	0
963.608	1
964.336	-2
965.064	1
965.792	2
966.52	1
967.247	1
967.975	1
968.703	1
969.43	0
970.158	3
970.885	1
971.613	0
972.34	2
973.067	3
973.794	1
974.521	0
975.248	0
975.975	-2
976.702	1
977.429	1
978.156	2
978.882	1
979.609	3
980.335	-1
981.062	0
981.788	0
982.514	0
983.24	2
983.967	0
984.693	-2
985.419	1
986.144	0
986.87	2
987.596	3
988.322	0
989.047	1
989.773	2
990.498	-1
991.224	0
991.949	0
992.674	0
993.399	1
994.124	1
994.849	3
995.574	1
996.299	2
997.024	1
997.749	0
998.473	0
999.198	0
999.922	-2
1000.647	-1
1001.371	3
1002.095	2
1002.82	-1
1003.544	-1
1004.268	5
1004.992	6
1005.716	6
1006.439	2
1007.163	7
1007.887	6
1008.611	-1
1009.334	0
1010.058	0
1010.781	1
1011.504	-1
1012.228	0
1012.951	-2
1013.674	0
1014.397	0
1015.12	-1
