节点500_705_QEPB04081__236__20-49-15-483.txt的数据

Date: Wed Nov 12 20:49:15 CST 2025
User: PC
Spectrometer: QEPB0408
触发模式: 0
积分时间 (秒): 1.000000E-2
Scans to average: 1
启用暗噪声校正: true
启用非线性校正: false
滑动平均宽度: 0
X轴模式: Wavelengths
Number of Pixels in Spectrum: 1044
>>>>>Begin Spectral Data<<<<<
220.843	6.12
221.644	6.12
222.444	5.12
223.244	4.12
224.045	5.12
224.845	8.12
225.645	6.12
226.445	8.12
227.245	6.12
228.045	6.12
228.845	9.12
229.645	9.12
230.444	9.12
231.244	10.12
232.043	10.12
232.843	11.12
233.642	10.12
234.442	11.12
235.241	12.12
236.04	11.12
236.839	10.12
237.638	12.12
238.437	9.12
239.236	11.12
240.035	14.12
240.833	13.12
241.632	13.12
242.43	13.12
243.229	12.12
244.027	12.12
244.826	11.12
245.624	13.12
246.422	17.12
247.22	13.12
248.018	16.12
248.816	16.12
249.614	17.12
250.412	15.12
251.21	17.12
252.007	15.12
252.805	17.12
253.602	18.12
254.4	19.12
255.197	19.12
255.994	23.12
256.791	20.12
257.589	20.12
258.386	22.12
259.183	20.12
259.979	23.12
260.776	24.12
261.573	30.12
262.37	25.12
263.166	26.12
263.963	27.12
264.759	24.12
265.556	26.12
266.352	29.12
267.148	25.12
267.944	29.12
268.74	28.12
269.536	31.12
270.332	30.12
271.128	33.12
271.924	32.12
272.719	32.12
273.515	33.12
274.311	31.12
275.106	33.12
275.901	34.12
276.697	35.12
277.492	34.12
278.287	36.12
279.082	36.12
279.877	33.12
280.672	34.12
281.467	35.12
282.262	33.12
283.056	40.12
283.851	35.12
284.646	33.12
285.44	35.12
286.234	33.12
287.029	33.12
287.823	36.12
288.617	33.12
289.411	35.12
290.205	31.12
290.999	31.12
291.793	31.12
292.587	34.12
293.381	31.12
294.174	31.12
294.968	30.12
295.761	29.12
296.555	29.12
297.348	28.12
298.141	28.12
298.935	27.12
299.728	24.12
300.521	28.12
301.314	25.12
302.107	25.12
302.899	26.12
303.692	25.12
304.485	23.12
305.277	24.12
306.07	23.12
306.862	22.12
307.655	25.12
308.447	22.12
309.239	22.12
310.031	20.12
310.823	20.12
311.615	19.12
312.407	15.12
313.199	20.12
313.991	17.12
314.783	14.12
315.574	19.12
316.366	17.12
317.157	15.12
317.949	13.12
318.74	16.12
319.531	14.12
320.322	16.12
321.113	14.12
321.904	16.12
322.695	14.12
323.486	14.12
324.277	13.12
325.068	15.12
325.858	10.12
326.649	13.12
327.439	10.12
328.23	14.12
329.02	12.12
329.81	12.12
330.6	15.12
331.391	14.12
332.181	13.12
332.971	12.12
333.76	11.12
334.55	13.12
335.34	11.12
336.13	13.12
336.919	13.12
337.709	12.12
338.498	13.12
339.287	13.12
340.077	12.12
340.866	10.12
341.655	15.12
342.444	9.12
343.233	11.12
344.022	11.12
344.811	12.12
345.6	11.12
346.388	10.12
347.177	12.12
347.965	12.12
348.754	11.12
349.542	9.12
350.33	11.12
351.119	10.12
351.907	14.12
352.695	10.12
353.483	11.12
354.271	8.12
355.059	11.12
355.846	10.12
356.634	10.12
357.422	12.12
358.209	11.12
358.997	14.12
359.784	8.12
360.571	9.12
361.359	10.12
362.146	10.12
362.933	9.12
363.72	8.12
364.507	10.12
365.294	10.12
366.081	9.12
366.867	9.12
367.654	9.12
368.44	10.12
369.227	12.12
370.013	9.12
370.8	11.12
371.586	11.12
372.372	10.12
373.158	9.12
373.944	10.12
374.73	12.12
375.516	11.12
376.302	8.12
377.088	9.12
377.873	9.12
378.659	10.12
379.445	7.12
380.23	11.12
381.015	10.12
381.801	6.12
382.586	10.12
383.371	9.12
384.156	9.12
384.941	13.12
385.726	11.12
386.511	11.12
387.296	10.12
388.08	11.12
388.865	12.12
389.649	11.12
390.434	10.12
391.218	13.12
392.003	11.12
392.787	12.12
393.571	9.12
394.355	12.12
395.139	13.12
395.923	13.12
396.707	13.12
397.491	11.12
398.274	13.12
399.058	12.12
399.842	12.12
400.625	15.12
401.408	11.12
402.192	16.12
402.975	15.12
403.758	14.12
404.541	17.12
405.324	15.12
406.107	14.12
406.89	17.12
407.673	17.12
408.456	17.12
409.238	18.12
410.021	15.12
410.803	15.12
411.586	17.12
412.368	16.12
413.151	17.12
413.933	18.12
414.715	18.12
415.497	19.12
416.279	20.12
417.061	19.12
417.843	21.12
418.624	19.12
419.406	21.12
420.188	21.12
420.969	21.12
421.751	19.12
422.532	22.12
423.313	22.12
424.095	25.12
424.876	26.12
425.657	21.12
426.438	28.12
427.219	28.12
428	27.12
428.78	27.12
429.561	29.12
430.342	31.12
431.122	33.12
431.903	27.12
432.683	34.12
433.464	34.12
434.244	36.12
435.024	38.12
435.804	41.12
436.584	41.12
437.364	47.12
438.144	45.12
438.924	48.12
439.704	52.12
440.483	55.12
441.263	61.12
442.042	65.12
442.822	69.12
443.601	75.12
444.38	76.12
445.16	86.12
445.939	93.12
446.718	100.12
447.497	111.12
448.276	119.12
449.054	130.12
449.833	145.12
450.612	156.12
451.391	174.12
452.169	190.12
452.948	213.12
453.726	238.12
454.504	259.12
455.282	287.12
456.061	323.12
456.839	359.12
457.617	394.12
458.395	443.12
459.172	501.12
459.95	549.12
460.728	611.12
461.506	694.12
462.283	771.12
463.061	850.12
463.838	959.12
464.615	1064.12
465.393	1195.12
466.17	1337.12
466.947	1480.12
467.724	1647.12
468.501	1828.12
469.278	2013.12
470.055	2257.12
470.831	2461.12
471.608	2752.12
472.385	3039.12
473.161	3347.12
473.938	3671.12
474.714	4074.12
475.49	4459.12
476.266	4920.12
477.043	5399.12
477.819	5875.12
478.595	6436.12
479.371	7071.12
480.146	7756.12
480.922	8443.12
481.698	9183.12
482.473	10067.12
483.249	11000.12
484.024	11946.12
484.8	12971.12
485.575	14038.12
486.35	15284.12
487.126	16614.12
487.901	17974.12
488.676	19379.12
489.451	21048.12
490.225	22572.12
491	24267.12
491.775	25981.12
492.55	27698.12
493.324	29547.12
494.099	31425.12
494.873	33218.12
495.647	35131.12
496.422	36994.12
497.196	38874.12
497.97	40483.12
498.744	41950.12
499.518	43604.12
500.292	44992.12
501.066	45914.12
501.839	46797.12
502.613	47448.12
503.387	47921.12
504.16	48363.12
504.934	48385.12
505.707	48236.12
506.48	47723.12
507.253	47089.12
508.027	46196.12
508.8	45151.12
509.573	43890.12
510.346	42788.12
511.118	41703.12
511.891	40243.12
512.664	38728.12
513.437	37216.12
514.209	35800.12
514.982	34347.12
515.754	32913.12
516.526	31478.12
517.298	30273.12
518.071	29040.12
518.843	27896.12
519.615	26740.12
520.387	25684.12
521.159	24619.12
521.93	23652.12
522.702	22640.12
523.474	21670.12
524.245	20780.12
525.017	19892.12
525.788	18845.12
526.56	18173.12
527.331	17355.12
528.102	16446.12
528.873	15587.12
529.644	14872.12
530.415	14180.12
531.186	13415.12
531.957	12702.12
532.728	12068.12
533.498	11412.12
534.269	10797.12
535.039	10173.12
535.81	9681.12
536.58	9107.12
537.351	8651.12
538.121	8200.12
538.891	7741.12
539.661	7350.12
540.431	6933.12
541.201	6616.12
541.971	6223.12
542.741	5922.12
543.51	5613.12
544.28	5360.12
545.05	5099.12
545.819	4855.12
546.588	4601.12
547.358	4413.12
548.127	4203.12
548.896	3956.12
549.665	3750.12
550.434	3572.12
551.203	3389.12
551.972	3189.12
552.741	3037.12
553.51	2847.12
554.278	2693.12
555.047	2552.12
555.815	2397.12
556.584	2270.12
557.352	2154.12
558.121	2014.12
558.889	1899.12
559.657	1818.12
560.425	1712.12
561.193	1604.12
561.961	1534.12
562.729	1447.12
563.496	1367.12
564.264	1299.12
565.032	1215.12
565.799	1153.12
566.567	1107.12
567.334	1039.12
568.101	977.12
568.869	935.12
569.636	871.12
570.403	825.12
571.17	783.12
571.937	736.12
572.704	703.12
573.471	657.12
574.237	619.12
575.004	573.12
575.771	554.12
576.537	519.12
577.303	497.12
578.07	460.12
578.836	434.12
579.602	419.12
580.368	393.12
581.134	369.12
581.9	362.12
582.666	335.12
583.432	319.12
584.198	304.12
584.964	285.12
585.729	274.12
586.495	262.12
587.26	247.12
588.025	226.12
588.791	215.12
589.556	205.12
590.321	199.12
591.086	190.12
591.851	181.12
592.616	166.12
593.381	163.12
594.146	152.12
594.911	154.12
595.675	145.12
596.44	139.12
597.204	130.12
597.969	121.12
598.733	120.12
599.497	113.12
600.261	113.12
601.025	106.12
601.79	104.12
602.553	97.12
603.317	92.12
604.081	91.12
604.845	82.12
605.609	83.12
606.372	76.12
607.136	71.12
607.899	73.12
608.662	70.12
609.426	67.12
610.189	66.12
610.952	60.12
611.715	58.12
612.478	56.12
613.241	56.12
614.004	52.12
614.767	54.12
615.529	51.12
616.292	51.12
617.055	47.12
617.817	44.12
618.579	44.12
619.342	41.12
620.104	42.12
620.866	41.12
621.628	35.12
622.39	36.12
623.152	35.12
623.914	34.12
624.676	32.12
625.438	36.12
626.199	34.12
626.961	27.12
627.722	30.12
628.484	27.12
629.245	29.12
630.006	28.12
630.768	26.12
631.529	26.12
632.29	30.12
633.051	24.12
633.812	24.12
634.573	23.12
635.333	22.12
636.094	23.12
636.855	21.12
637.615	23.12
638.376	22.12
639.136	19.12
639.896	20.12
640.657	21.12
641.417	17.12
642.177	18.12
642.937	18.12
643.697	15.12
644.457	18.12
645.216	18.12
645.976	17.12
646.736	15.12
647.495	18.12
648.255	15.12
649.014	13.12
649.774	15.12
650.533	17.12
651.292	14.12
652.051	15.12
652.81	13.12
653.569	11.12
654.328	14.12
655.087	15.12
655.846	13.12
656.604	15.12
657.363	11.12
658.121	12.12
658.88	12.12
659.638	12.12
660.397	11.12
661.155	11.12
661.913	10.12
662.671	11.12
663.429	12.12
664.187	12.12
664.945	10.12
665.703	12.12
666.46	7.12
667.218	8.12
667.976	11.12
668.733	10.12
669.49	11.12
670.248	11.12
671.005	11.12
671.762	10.12
672.519	8.12
673.276	11.12
674.033	8.12
674.79	11.12
675.547	10.12
676.304	8.12
677.06	11.12
677.817	8.12
678.574	10.12
679.33	8.12
680.086	9.12
680.843	9.12
681.599	8.12
682.355	11.12
683.111	8.12
683.867	9.12
684.623	11.12
685.379	8.12
686.135	9.12
686.89	8.12
687.646	8.12
688.402	8.12
689.157	9.12
689.912	7.12
690.668	8.12
691.423	9.12
692.178	9.12
692.933	8.12
693.688	8.12
694.443	8.12
695.198	9.12
695.953	8.12
696.708	8.12
697.462	8.12
698.217	6.12
698.972	7.12
699.726	6.12
700.48	9.12
701.235	7.12
701.989	7.12
702.743	6.12
703.497	7.12
704.251	9.12
705.005	8.12
705.759	9.12
706.513	8.12
707.266	8.12
708.02	9.12
708.774	6.12
709.527	9.12
710.28	8.12
711.034	8.12
711.787	8.12
712.54	7.12
713.293	7.12
714.046	5.12
714.799	7.12
715.552	8.12
716.305	8.12
717.058	7.12
717.81	8.12
718.563	9.12
719.315	8.12
720.068	10.12
720.82	9.12
721.573	7.12
722.325	9.12
723.077	7.12
723.829	9.12
724.581	8.12
725.333	5.12
726.085	7.12
726.836	10.12
727.588	7.12
728.34	8.12
729.091	10.12
729.843	10.12
730.594	9.12
731.346	11.12
732.097	8.12
732.848	7.12
733.599	11.12
734.35	7.12
735.101	10.12
735.852	10.12
736.603	11.12
737.354	9.12
738.104	11.12
738.855	10.12
739.605	10.12
740.356	8.12
741.106	13.12
741.856	11.12
742.607	11.12
743.357	8.12
744.107	10.12
744.857	13.12
745.607	10.12
746.357	9.12
747.106	11.12
747.856	10.12
748.606	12.12
749.355	10.12
750.105	13.12
750.854	13.12
751.603	12.12
752.353	12.12
753.102	11.12
753.851	10.12
754.6	13.12
755.349	14.12
756.098	12.12
756.847	11.12
757.595	11.12
758.344	12.12
759.093	10.12
759.841	14.12
760.589	13.12
761.338	13.12
762.086	13.12
762.834	14.12
763.582	14.12
764.331	12.12
765.079	15.12
765.826	13.12
766.574	15.12
767.322	12.12
768.07	16.12
768.817	15.12
769.565	14.12
770.312	15.12
771.06	14.12
771.807	15.12
772.554	17.12
773.302	13.12
774.049	15.12
774.796	14.12
775.543	13.12
776.29	16.12
777.036	15.12
777.783	16.12
778.53	16.12
779.276	19.12
780.023	18.12
780.769	15.12
781.516	15.12
782.262	15.12
783.008	15.12
783.754	18.12
784.5	17.12
785.246	16.12
785.992	17.12
786.738	17.12
787.484	15.12
788.23	18.12
788.975	13.12
789.721	20.12
790.466	15.12
791.212	14.12
791.957	15.12
792.702	13.12
793.447	17.12
794.193	14.12
794.938	14.12
795.683	15.12
796.427	15.12
797.172	15.12
797.917	13.12
798.662	14.12
799.406	12.12
800.151	12.12
800.895	15.12
801.64	11.12
802.384	15.12
803.128	10.12
803.872	11.12
804.616	12.12
805.36	11.12
806.104	11.12
806.848	12.12
807.592	9.12
808.336	11.12
809.079	11.12
809.823	10.12
810.566	9.12
811.31	11.12
812.053	9.12
812.796	9.12
813.539	10.12
814.283	6.12
815.026	10.12
815.769	6.12
816.511	7.12
817.254	7.12
817.997	8.12
818.74	5.12
819.482	8.12
820.225	9.12
820.967	6.12
821.71	8.12
822.452	9.12
823.194	7.12
823.936	9.12
824.678	6.12
825.42	7.12
826.162	10.12
826.904	7.12
827.646	5.12
828.388	7.12
829.129	8.12
829.871	4.12
830.612	5.12
831.354	6.12
832.095	5.12
832.836	6.12
833.577	6.12
834.319	6.12
835.06	3.12
835.801	6.12
836.542	7.12
837.282	7.12
838.023	5.12
838.764	3.12
839.504	6.12
840.245	6.12
840.985	6.12
841.726	7.12
842.466	5.12
843.206	4.12
843.946	5.12
844.687	7.12
845.427	5.12
846.166	3.12
846.906	5.12
847.646	3.12
848.386	3.12
849.125	4.12
849.865	5.12
850.605	4.12
851.344	4.12
852.083	7.12
852.823	4.12
853.562	3.12
854.301	3.12
855.04	3.12
855.779	5.12
856.518	3.12
857.257	4.12
857.995	2.12
858.734	3.12
859.473	3.12
860.211	2.12
860.95	4.12
861.688	4.12
862.426	2.12
863.165	2.12
863.903	3.12
864.641	5.12
865.379	3.12
866.117	2.12
866.855	0.12
867.593	3.12
868.33	3.12
869.068	3.12
869.806	5.12
870.543	2.12
871.28	2.12
872.018	1.12
872.755	1.12
873.492	2.12
874.229	4.12
874.967	2.12
875.703	3.12
876.44	3.12
877.177	1.12
877.914	2.12
878.651	1.12
879.387	1.12
880.124	2.12
880.86	0.12
881.597	3.12
882.333	1.12
883.069	1.12
883.806	0.12
884.542	2.12
885.278	2.12
886.014	1.12
886.749	3.12
887.485	1.12
888.221	2.12
888.957	2.12
889.692	1.12
890.428	3.12
891.163	0.12
891.899	2.12
892.634	2.12
893.369	-0.88
894.104	3.12
894.839	1.12
895.574	2.12
896.309	0.12
897.044	1.12
897.779	2.12
898.514	-0.88
899.248	0.12
899.983	1.12
900.717	-0.88
901.452	3.12
902.186	0.12
902.92	1.12
903.654	-0.88
904.389	2.12
905.123	0.12
905.857	0.12
906.59	1.12
907.324	-0.88
908.058	2.12
908.792	0.12
909.525	3.12
910.259	-0.88
910.992	1.12
911.726	1.12
912.459	-0.88
913.192	2.12
913.925	1.12
914.658	2.12
915.391	2.12
916.124	-0.88
916.857	0.12
917.59	1.12
918.323	1.12
919.055	0.12
919.788	3.12
920.521	1.12
921.253	2.12
921.985	1.12
922.718	-0.88
923.45	2.12
924.182	0.12
924.914	0.12
925.646	0.12
926.378	1.12
927.11	2.12
927.841	0.12
928.573	0.12
929.305	1.12
930.036	-0.88
930.768	0.12
931.499	-0.88
932.23	1.12
932.962	0.12
933.693	2.12
934.424	1.12
935.155	2.12
935.886	2.12
936.617	1.12
937.348	0.12
938.078	-0.88
938.809	-0.88
939.54	1.12
940.27	-0.88
941.001	0.12
941.731	-2.88
942.461	1.12
943.191	0.12
943.922	0.12
944.652	-0.88
945.382	1.12
946.112	1.12
946.841	-1.88
947.571	1.12
948.301	2.12
949.031	-1.88
949.76	1.12
950.49	1.12
951.219	0.12
951.948	0.12
952.678	-0.88
953.407	2.12
954.136	-0.88
954.865	-0.88
955.594	2.12
956.323	1.12
957.052	1.12
957.78	-0.88
958.509	1.12
959.238	0.12
959.966	1.12
960.695	-1.88
961.423	1.12
962.151	-0.88
962.88	1.12
963.608	2.12
964.336	1.12
965.064	0.12
965.792	0.12
966.52	0.12
967.247	2.12
967.975	0.12
968.703	1.12
969.43	2.12
970.158	2.12
970.885	-0.88
971.613	-0.88
972.34	0.12
973.067	-0.88
973.794	-0.88
974.521	1.12
975.248	1.12
975.975	1.12
976.702	-0.88
977.429	1.12
978.156	-0.88
978.882	2.12
979.609	1.12
980.335	-0.88
981.062	3.12
981.788	-1.88
982.514	1.12
983.24	2.12
983.967	0.12
984.693	1.12
985.419	-0.88
986.144	-0.88
986.87	1.12
987.596	3.12
988.322	1.12
989.047	0.12
989.773	-1.88
990.498	1.12
991.224	1.12
991.949	-0.88
992.674	0.12
993.399	0.12
994.124	-0.88
994.849	1.12
995.574	-0.88
996.299	2.12
997.024	0.12
997.749	1.12
998.473	-1.88
999.198	-1.88
999.922	1.12
1000.647	1.12
1001.371	3.12
1002.095	-0.88
1002.82	-0.88
1003.544	1.12
1004.268	3.12
1004.992	1.12
1005.716	4.12
1006.439	5.12
1007.163	4.12
1007.887	6.12
1008.611	1.12
1009.334	0.12
1010.058	-0.88
1010.781	0.12
1011.504	-0.88
1012.228	3.12
1012.951	-0.88
1013.674	-0.88
1014.397	0.12
1015.12	-0.88
