节点500_705_QEPB04081__559__20-53-52-751.txt的数据

Date: Wed Nov 12 20:53:52 CST 2025
User: PC
Spectrometer: QEPB0408
触发模式: 0
积分时间 (秒): 1.000000E-2
Scans to average: 1
启用暗噪声校正: true
启用非线性校正: false
滑动平均宽度: 0
X轴模式: Wavelengths
Number of Pixels in Spectrum: 1044
>>>>>Begin Spectral Data<<<<<
220.843	5
221.644	5
222.444	4
223.244	6
224.045	6
224.845	6
225.645	4
226.445	6
227.245	6
228.045	8
228.845	7
229.645	8
230.444	6
231.244	6
232.043	8
232.843	9
233.642	11
234.442	11
235.241	8
236.04	8
236.839	9
237.638	11
238.437	11
239.236	13
240.035	9
240.833	11
241.632	12
242.43	11
243.229	13
244.027	13
244.826	14
245.624	12
246.422	15
247.22	13
248.018	14
248.816	16
249.614	14
250.412	18
251.21	13
252.007	13
252.805	14
253.602	16
254.4	15
255.197	19
255.994	16
256.791	15
257.589	20
258.386	22
259.183	18
259.979	18
260.776	21
261.573	21
262.37	24
263.166	22
263.963	24
264.759	23
265.556	23
266.352	24
267.148	22
267.944	24
268.74	26
269.536	26
270.332	28
271.128	29
271.924	29
272.719	28
273.515	30
274.311	28
275.106	29
275.901	29
276.697	31
277.492	31
278.287	29
279.082	36
279.877	31
280.672	27
281.467	31
282.262	31
283.056	31
283.851	35
284.646	32
285.44	32
286.234	31
287.029	32
287.823	30
288.617	32
289.411	34
290.205	29
290.999	31
291.793	30
292.587	29
293.381	29
294.174	31
294.968	27
295.761	26
296.555	26
297.348	23
298.141	26
298.935	24
299.728	26
300.521	26
301.314	25
302.107	25
302.899	22
303.692	23
304.485	23
305.277	24
306.07	26
306.862	20
307.655	21
308.447	19
309.239	21
310.031	20
310.823	17
311.615	18
312.407	16
313.199	18
313.991	18
314.783	16
315.574	16
316.366	16
317.157	19
317.949	15
318.74	14
319.531	16
320.322	15
321.113	14
321.904	13
322.695	13
323.486	11
324.277	14
325.068	15
325.858	12
326.649	14
327.439	12
328.23	13
329.02	13
329.81	13
330.6	14
331.391	12
332.181	12
332.971	13
333.76	11
334.55	9
335.34	13
336.13	12
336.919	11
337.709	12
338.498	9
339.287	10
340.077	9
340.866	13
341.655	15
342.444	10
343.233	11
344.022	11
344.811	11
345.6	14
346.388	10
347.177	14
347.965	11
348.754	12
349.542	9
350.33	9
351.119	12
351.907	11
352.695	12
353.483	9
354.271	11
355.059	11
355.846	10
356.634	14
357.422	11
358.209	8
358.997	11
359.784	12
360.571	9
361.359	8
362.146	11
362.933	9
363.72	9
364.507	9
365.294	9
366.081	11
366.867	8
367.654	9
368.44	10
369.227	10
370.013	8
370.8	10
371.586	10
372.372	10
373.158	11
373.944	12
374.73	9
375.516	10
376.302	7
377.088	11
377.873	12
378.659	8
379.445	9
380.23	7
381.015	8
381.801	10
382.586	11
383.371	9
384.156	10
384.941	10
385.726	10
386.511	13
387.296	10
388.08	14
388.865	12
389.649	11
390.434	11
391.218	10
392.003	8
392.787	11
393.571	13
394.355	11
395.139	9
395.923	14
396.707	15
397.491	14
398.274	12
399.058	12
399.842	14
400.625	14
401.408	15
402.192	14
402.975	15
403.758	13
404.541	15
405.324	13
406.107	14
406.89	13
407.673	13
408.456	15
409.238	18
410.021	15
410.803	15
411.586	17
412.368	18
413.151	18
413.933	16
414.715	18
415.497	16
416.279	18
417.061	19
417.843	20
418.624	18
419.406	18
420.188	23
420.969	19
421.751	24
422.532	24
423.313	23
424.095	22
424.876	24
425.657	24
426.438	24
427.219	25
428	27
428.78	29
429.561	27
430.342	31
431.122	34
431.903	27
432.683	36
433.464	38
434.244	37
435.024	39
435.804	40
436.584	44
437.364	47
438.144	45
438.924	50
439.704	49
440.483	59
441.263	63
442.042	65
442.822	69
443.601	78
444.38	86
445.16	92
445.939	98
446.718	108
447.497	117
448.276	130
449.054	136
449.833	152
450.612	167
451.391	190
452.169	210
452.948	233
453.726	265
454.504	285
455.282	315
456.061	353
456.839	393
457.617	441
458.395	483
459.172	540
459.95	600
460.728	675
461.506	749
462.283	825
463.061	915
463.838	1024
464.615	1122
465.393	1259
466.17	1404
466.947	1528
467.724	1691
468.501	1867
469.278	2064
470.055	2275
470.831	2510
471.608	2740
472.385	3034
473.161	3319
473.938	3641
474.714	3965
475.49	4349
476.266	4743
477.043	5165
477.819	5629
478.595	6104
479.371	6622
480.146	7175
480.922	7804
481.698	8480
482.473	9209
483.249	9948
484.024	10775
484.8	11591
485.575	12538
486.35	13481
487.126	14608
487.901	15738
488.676	16869
489.451	18142
490.225	19505
491	20835
491.775	22269
492.55	23790
493.324	25313
494.099	26910
494.873	28459
495.647	30068
496.422	31665
497.196	33354
497.97	34874
498.744	36281
499.518	37870
500.292	39198
501.066	40304
501.839	41298
502.613	42213
503.387	43070
504.16	43611
504.934	43954
505.707	44163
506.48	44098
507.253	43921
508.027	43602
508.8	42946
509.573	42082
510.346	41406
511.118	40657
511.891	39573
512.664	38213
513.437	37032
514.209	35852
514.982	34477
515.754	33295
516.526	32022
517.298	30800
518.071	29605
518.843	28482
519.615	27283
520.387	26218
521.159	25241
521.93	24163
522.702	23195
523.474	22242
524.245	21330
525.017	20473
525.788	19616
526.56	18781
527.331	18040
528.102	17213
528.873	16313
529.644	15568
530.415	14867
531.186	14208
531.957	13443
532.728	12803
533.498	12139
534.269	11547
535.039	10948
535.81	10379
536.58	9813
537.351	9287
538.121	8791
538.891	8315
539.661	7877
540.431	7451
541.201	7109
541.971	6695
542.741	6348
543.51	6027
544.28	5755
545.05	5474
545.819	5224
546.588	4964
547.358	4734
548.127	4503
548.896	4287
549.665	4086
550.434	3870
551.203	3661
551.972	3497
552.741	3301
553.51	3121
554.278	2938
555.047	2777
555.815	2627
556.584	2484
557.352	2347
558.121	2206
558.889	2115
559.657	2006
560.425	1888
561.193	1790
561.961	1688
562.729	1600
563.496	1503
564.264	1432
565.032	1369
565.799	1271
566.567	1217
567.334	1138
568.101	1083
568.869	1021
569.636	968
570.403	903
571.17	849
571.937	807
572.704	759
573.471	722
574.237	688
575.004	652
575.771	599
576.537	576
577.303	547
578.07	509
578.836	485
579.602	454
580.368	428
581.134	419
581.9	383
582.666	385
583.432	356
584.198	332
584.964	318
585.729	302
586.495	289
587.26	271
588.025	261
588.791	248
589.556	234
590.321	220
591.086	201
591.851	199
592.616	193
593.381	180
594.146	167
594.911	163
595.675	154
596.44	155
597.204	145
597.969	137
598.733	134
599.497	127
600.261	121
601.025	117
601.79	115
602.553	105
603.317	103
604.081	96
604.845	91
605.609	85
606.372	86
607.136	85
607.899	77
608.662	78
609.426	75
610.189	70
610.952	68
611.715	66
612.478	59
613.241	59
614.004	58
614.767	57
615.529	52
616.292	50
617.055	52
617.817	48
618.579	49
619.342	48
620.104	43
620.866	41
621.628	43
622.39	41
623.152	40
623.914	38
624.676	37
625.438	35
626.199	33
626.961	34
627.722	33
628.484	33
629.245	30
630.006	28
630.768	28
631.529	28
632.29	26
633.051	26
633.812	23
634.573	24
635.333	22
636.094	25
636.855	24
637.615	23
638.376	21
639.136	20
639.896	21
640.657	18
641.417	19
642.177	19
642.937	17
643.697	19
644.457	18
645.216	17
645.976	18
646.736	16
647.495	12
648.255	15
649.014	13
649.774	15
650.533	11
651.292	15
652.051	16
652.81	15
653.569	13
654.328	12
655.087	13
655.846	13
656.604	14
657.363	11
658.121	11
658.88	14
659.638	14
660.397	11
661.155	12
661.913	15
662.671	12
663.429	11
664.187	12
664.945	10
665.703	12
666.46	12
667.218	10
667.976	8
668.733	9
669.49	9
670.248	9
671.005	11
671.762	8
672.519	13
673.276	9
674.033	11
674.79	9
675.547	11
676.304	11
677.06	9
677.817	10
678.574	10
679.33	10
680.086	9
680.843	9
681.599	9
682.355	8
683.111	8
683.867	8
684.623	7
685.379	7
686.135	9
686.89	9
687.646	8
688.402	7
689.157	7
689.912	7
690.668	8
691.423	10
692.178	9
692.933	7
693.688	9
694.443	7
695.198	8
695.953	8
696.708	9
697.462	8
698.217	6
698.972	7
699.726	8
700.48	10
701.235	10
701.989	5
702.743	8
703.497	7
704.251	7
705.005	8
705.759	8
706.513	9
707.266	8
708.02	7
708.774	6
709.527	6
710.28	7
711.034	9
711.787	8
712.54	7
713.293	5
714.046	11
714.799	10
715.552	7
716.305	8
717.058	6
717.81	8
718.563	8
719.315	7
720.068	8
720.82	9
721.573	9
722.325	8
723.077	10
723.829	7
724.581	10
725.333	7
726.085	9
726.836	10
727.588	8
728.34	9
729.091	7
729.843	9
730.594	9
731.346	8
732.097	9
732.848	10
733.599	10
734.35	8
735.101	8
735.852	9
736.603	11
737.354	7
738.104	7
738.855	11
739.605	9
740.356	9
741.106	9
741.856	9
742.607	13
743.357	9
744.107	10
744.857	8
745.607	9
746.357	9
747.106	10
747.856	11
748.606	11
749.355	13
750.105	13
750.854	9
751.603	11
752.353	11
753.102	9
753.851	11
754.6	11
755.349	10
756.098	10
756.847	12
757.595	10
758.344	13
759.093	9
759.841	10
760.589	13
761.338	12
762.086	11
762.834	12
763.582	14
764.331	14
765.079	12
765.826	15
766.574	16
767.322	12
768.07	13
768.817	13
769.565	15
770.312	14
771.06	12
771.807	13
772.554	15
773.302	11
774.049	12
774.796	15
775.543	15
776.29	14
777.036	13
777.783	15
778.53	14
779.276	15
780.023	14
780.769	14
781.516	14
782.262	15
783.008	15
783.754	12
784.5	15
785.246	15
785.992	14
786.738	13
787.484	14
788.23	12
788.975	14
789.721	13
790.466	15
791.212	14
791.957	12
792.702	11
793.447	11
794.193	13
794.938	10
795.683	13
796.427	15
797.172	14
797.917	10
798.662	13
799.406	12
800.151	9
800.895	13
801.64	13
802.384	12
803.128	10
803.872	10
804.616	13
805.36	10
806.104	11
806.848	12
807.592	11
808.336	11
809.079	10
809.823	11
810.566	9
811.31	7
812.053	11
812.796	9
813.539	10
814.283	8
815.026	7
815.769	10
816.511	8
817.254	6
817.997	7
818.74	10
819.482	8
820.225	9
820.967	6
821.71	4
822.452	9
823.194	8
823.936	6
824.678	6
825.42	9
826.162	7
826.904	6
827.646	9
828.388	7
829.129	8
829.871	9
830.612	5
831.354	5
832.095	6
832.836	4
833.577	6
834.319	7
835.06	4
835.801	6
836.542	5
837.282	4
838.023	6
838.764	8
839.504	8
840.245	6
840.985	3
841.726	6
842.466	5
843.206	7
843.946	4
844.687	6
845.427	5
846.166	3
846.906	5
847.646	7
848.386	6
849.125	7
849.865	6
850.605	7
851.344	6
852.083	5
852.823	6
853.562	4
854.301	3
855.04	3
855.779	7
856.518	6
857.257	3
857.995	6
858.734	1
859.473	3
860.211	6
860.95	5
861.688	4
862.426	5
863.165	4
863.903	2
864.641	6
865.379	3
866.117	6
866.855	4
867.593	3
868.33	3
869.068	4
869.806	1
870.543	2
871.28	0
872.018	2
872.755	1
873.492	3
874.229	2
874.967	3
875.703	2
876.44	2
877.177	3
877.914	-2
878.651	2
879.387	2
880.124	2
880.86	5
881.597	2
882.333	1
883.069	3
883.806	2
884.542	1
885.278	3
886.014	1
886.749	1
887.485	2
888.221	2
888.957	2
889.692	3
890.428	2
891.163	2
891.899	3
892.634	1
893.369	1
894.104	0
894.839	1
895.574	1
896.309	1
897.044	3
897.779	-1
898.514	1
899.248	2
899.983	4
900.717	0
901.452	2
902.186	2
902.92	1
903.654	1
904.389	2
905.123	-1
905.857	1
906.59	3
907.324	2
908.058	0
908.792	1
909.525	2
910.259	1
910.992	1
911.726	-1
912.459	2
913.192	-1
913.925	0
914.658	3
915.391	1
916.124	1
916.857	1
917.59	0
918.323	0
919.055	2
919.788	1
920.521	-1
921.253	3
921.985	0
922.718	-2
923.45	-1
924.182	1
924.914	2
925.646	0
926.378	1
927.11	0
927.841	0
928.573	-1
929.305	1
930.036	1
930.768	1
931.499	2
932.23	1
932.962	2
933.693	-1
934.424	0
935.155	0
935.886	1
936.617	3
937.348	0
938.078	2
938.809	0
939.54	-2
940.27	2
941.001	-1
941.731	1
942.461	0
943.191	0
943.922	1
944.652	0
945.382	1
946.112	-1
946.841	2
947.571	3
948.301	0
949.031	2
949.76	-1
950.49	0
951.219	2
951.948	1
952.678	0
953.407	2
954.136	-1
954.865	2
955.594	1
956.323	0
957.052	-1
957.78	1
958.509	-2
959.238	1
959.966	1
960.695	1
961.423	0
962.151	2
962.88	1
963.608	0
964.336	1
965.064	-1
965.792	-2
966.52	1
967.247	-1
967.975	2
968.703	0
969.43	1
970.158	-2
970.885	2
971.613	3
972.34	-1
973.067	2
973.794	1
974.521	0
975.248	3
975.975	1
976.702	1
977.429	2
978.156	3
978.882	0
979.609	0
980.335	2
981.062	1
981.788	2
982.514	2
983.24	1
983.967	2
984.693	2
985.419	0
986.144	-3
986.87	-1
987.596	1
988.322	0
989.047	1
989.773	-1
990.498	-1
991.224	0
991.949	3
992.674	3
993.399	0
994.124	-1
994.849	-1
995.574	1
996.299	-1
997.024	1
997.749	-1
998.473	0
999.198	0
999.922	1
1000.647	0
1001.371	2
1002.095	-1
1002.82	-1
1003.544	-1
1004.268	6
1004.992	5
1005.716	5
1006.439	6
1007.163	5
1007.887	6
1008.611	-2
1009.334	0
1010.058	1
1010.781	0
1011.504	1
1012.228	-1
1012.951	1
1013.674	0
1014.397	2
1015.12	-2
