节点500_705_QEPB04081__581__20-54-11-756.txt的数据

Date: Wed Nov 12 20:54:11 CST 2025
User: PC
Spectrometer: QEPB0408
触发模式: 0
积分时间 (秒): 1.000000E-2
Scans to average: 1
启用暗噪声校正: true
启用非线性校正: false
滑动平均宽度: 0
X轴模式: Wavelengths
Number of Pixels in Spectrum: 1044
>>>>>Begin Spectral Data<<<<<
220.843	5.62
221.644	0.62
222.444	6.62
223.244	5.62
224.045	8.62
224.845	5.62
225.645	6.62
226.445	5.62
227.245	5.62
228.045	9.62
228.845	6.62
229.645	6.62
230.444	9.62
231.244	6.62
232.043	6.62
232.843	7.62
233.642	7.62
234.442	7.62
235.241	7.62
236.04	7.62
236.839	8.62
237.638	8.62
238.437	9.62
239.236	10.62
240.035	10.62
240.833	10.62
241.632	12.62
242.43	11.62
243.229	10.62
244.027	10.62
244.826	12.62
245.624	10.62
246.422	12.62
247.22	13.62
248.018	9.62
248.816	14.62
249.614	16.62
250.412	11.62
251.21	15.62
252.007	14.62
252.805	14.62
253.602	16.62
254.4	18.62
255.197	15.62
255.994	17.62
256.791	18.62
257.589	17.62
258.386	19.62
259.183	18.62
259.979	20.62
260.776	19.62
261.573	19.62
262.37	22.62
263.166	21.62
263.963	22.62
264.759	24.62
265.556	22.62
266.352	24.62
267.148	25.62
267.944	23.62
268.74	28.62
269.536	26.62
270.332	26.62
271.128	27.62
271.924	28.62
272.719	27.62
273.515	29.62
274.311	28.62
275.106	29.62
275.901	30.62
276.697	29.62
277.492	31.62
278.287	32.62
279.082	32.62
279.877	30.62
280.672	32.62
281.467	31.62
282.262	32.62
283.056	28.62
283.851	31.62
284.646	30.62
285.44	32.62
286.234	32.62
287.029	32.62
287.823	31.62
288.617	32.62
289.411	30.62
290.205	29.62
290.999	29.62
291.793	29.62
292.587	30.62
293.381	28.62
294.174	31.62
294.968	28.62
295.761	24.62
296.555	27.62
297.348	24.62
298.141	25.62
298.935	29.62
299.728	25.62
300.521	23.62
301.314	22.62
302.107	22.62
302.899	23.62
303.692	20.62
304.485	21.62
305.277	20.62
306.07	22.62
306.862	22.62
307.655	23.62
308.447	21.62
309.239	20.62
310.031	20.62
310.823	17.62
311.615	16.62
312.407	18.62
313.199	14.62
313.991	17.62
314.783	18.62
315.574	16.62
316.366	14.62
317.157	15.62
317.949	15.62
318.74	14.62
319.531	14.62
320.322	13.62
321.113	13.62
321.904	13.62
322.695	14.62
323.486	14.62
324.277	13.62
325.068	13.62
325.858	10.62
326.649	11.62
327.439	8.62
328.23	13.62
329.02	9.62
329.81	10.62
330.6	13.62
331.391	9.62
332.181	11.62
332.971	10.62
333.76	8.62
334.55	11.62
335.34	10.62
336.13	11.62
336.919	10.62
337.709	10.62
338.498	10.62
339.287	12.62
340.077	12.62
340.866	10.62
341.655	9.62
342.444	7.62
343.233	13.62
344.022	11.62
344.811	12.62
345.6	9.62
346.388	10.62
347.177	12.62
347.965	10.62
348.754	11.62
349.542	9.62
350.33	8.62
351.119	9.62
351.907	9.62
352.695	11.62
353.483	10.62
354.271	8.62
355.059	10.62
355.846	8.62
356.634	10.62
357.422	11.62
358.209	8.62
358.997	10.62
359.784	9.62
360.571	10.62
361.359	8.62
362.146	9.62
362.933	8.62
363.72	8.62
364.507	8.62
365.294	9.62
366.081	10.62
366.867	10.62
367.654	8.62
368.44	8.62
369.227	10.62
370.013	9.62
370.8	9.62
371.586	9.62
372.372	10.62
373.158	10.62
373.944	7.62
374.73	10.62
375.516	8.62
376.302	9.62
377.088	10.62
377.873	8.62
378.659	7.62
379.445	10.62
380.23	6.62
381.015	9.62
381.801	8.62
382.586	9.62
383.371	8.62
384.156	7.62
384.941	6.62
385.726	8.62
386.511	12.62
387.296	8.62
388.08	12.62
388.865	12.62
389.649	9.62
390.434	8.62
391.218	11.62
392.003	9.62
392.787	9.62
393.571	8.62
394.355	10.62
395.139	9.62
395.923	11.62
396.707	8.62
397.491	9.62
398.274	10.62
399.058	13.62
399.842	11.62
400.625	11.62
401.408	11.62
402.192	12.62
402.975	11.62
403.758	13.62
404.541	12.62
405.324	14.62
406.107	12.62
406.89	13.62
407.673	13.62
408.456	13.62
409.238	16.62
410.021	17.62
410.803	15.62
411.586	15.62
412.368	17.62
413.151	13.62
413.933	14.62
414.715	18.62
415.497	17.62
416.279	14.62
417.061	17.62
417.843	18.62
418.624	17.62
419.406	18.62
420.188	18.62
420.969	22.62
421.751	18.62
422.532	20.62
423.313	17.62
424.095	22.62
424.876	22.62
425.657	23.62
426.438	23.62
427.219	25.62
428	25.62
428.78	23.62
429.561	26.62
430.342	29.62
431.122	30.62
431.903	32.62
432.683	34.62
433.464	36.62
434.244	33.62
435.024	39.62
435.804	38.62
436.584	42.62
437.364	46.62
438.144	44.62
438.924	52.62
439.704	51.62
440.483	54.62
441.263	60.62
442.042	66.62
442.822	76.62
443.601	78.62
444.38	88.62
445.16	88.62
445.939	98.62
446.718	109.62
447.497	113.62
448.276	131.62
449.054	141.62
449.833	154.62
450.612	171.62
451.391	189.62
452.169	210.62
452.948	230.62
453.726	255.62
454.504	279.62
455.282	318.62
456.061	358.62
456.839	392.62
457.617	436.62
458.395	492.62
459.172	541.62
459.95	600.62
460.728	673.62
461.506	748.62
462.283	824.62
463.061	918.62
463.838	1024.62
464.615	1132.62
465.393	1257.62
466.17	1385.62
466.947	1544.62
467.724	1696.62
468.501	1867.62
469.278	2074.62
470.055	2284.62
470.831	2496.62
471.608	2749.62
472.385	3031.62
473.161	3296.62
473.938	3640.62
474.714	3963.62
475.49	4345.62
476.266	4700.62
477.043	5137.62
477.819	5585.62
478.595	6054.62
479.371	6586.62
480.146	7158.62
480.922	7790.62
481.698	8438.62
482.473	9155.62
483.249	9891.62
484.024	10660.62
484.8	11516.62
485.575	12420.62
486.35	13441.62
487.126	14491.62
487.901	15572.62
488.676	16751.62
489.451	18030.62
490.225	19322.62
491	20692.62
491.775	22041.62
492.55	23497.62
493.324	25033.62
494.099	26667.62
494.873	28146.62
495.647	29712.62
496.422	31351.62
497.196	32972.62
497.97	34513.62
498.744	35912.62
499.518	37498.62
500.292	38769.62
501.066	39848.62
501.839	40852.62
502.613	41791.62
503.387	42643.62
504.16	43272.62
504.934	43606.62
505.707	43868.62
506.48	43767.62
507.253	43562.62
508.027	43235.62
508.8	42717.62
509.573	42006.62
510.346	41271.62
511.118	40553.62
511.891	39438.62
512.664	38110.62
513.437	36936.62
514.209	35743.62
514.982	34455.62
515.754	33166.62
516.526	31972.62
517.298	30719.62
518.071	29608.62
518.843	28432.62
519.615	27212.62
520.387	26221.62
521.159	25194.62
521.93	24214.62
522.702	23151.62
523.474	22208.62
524.245	21366.62
525.017	20462.62
525.788	19635.62
526.56	18774.62
527.331	18056.62
528.102	17158.62
528.873	16341.62
529.644	15550.62
530.415	14885.62
531.186	14245.62
531.957	13515.62
532.728	12860.62
533.498	12200.62
534.269	11510.62
535.039	10987.62
535.81	10388.62
536.58	9823.62
537.351	9321.62
538.121	8830.62
538.891	8362.62
539.661	7916.62
540.431	7454.62
541.201	7110.62
541.971	6726.62
542.741	6361.62
543.51	6067.62
544.28	5767.62
545.05	5479.62
545.819	5223.62
546.588	4999.62
547.358	4782.62
548.127	4519.62
548.896	4288.62
549.665	4072.62
550.434	3879.62
551.203	3707.62
551.972	3475.62
552.741	3315.62
553.51	3115.62
554.278	2940.62
555.047	2802.62
555.815	2643.62
556.584	2524.62
557.352	2350.62
558.121	2232.62
558.889	2110.62
559.657	2014.62
560.425	1888.62
561.193	1780.62
561.961	1700.62
562.729	1611.62
563.496	1518.62
564.264	1438.62
565.032	1359.62
565.799	1287.62
566.567	1210.62
567.334	1150.62
568.101	1088.62
568.869	1026.62
569.636	968.62
570.403	901.62
571.17	871.62
571.937	818.62
572.704	770.62
573.471	727.62
574.237	679.62
575.004	644.62
575.771	615.62
576.537	568.62
577.303	545.62
578.07	519.62
578.836	477.62
579.602	458.62
580.368	431.62
581.134	416.62
581.9	395.62
582.666	381.62
583.432	355.62
584.198	339.62
584.964	320.62
585.729	309.62
586.495	286.62
587.26	265.62
588.025	251.62
588.791	243.62
589.556	229.62
590.321	220.62
591.086	208.62
591.851	199.62
592.616	190.62
593.381	180.62
594.146	169.62
594.911	168.62
595.675	155.62
596.44	152.62
597.204	139.62
597.969	142.62
598.733	130.62
599.497	125.62
600.261	120.62
601.025	113.62
601.79	110.62
602.553	110.62
603.317	98.62
604.081	97.62
604.845	89.62
605.609	90.62
606.372	88.62
607.136	82.62
607.899	77.62
608.662	74.62
609.426	71.62
610.189	68.62
610.952	69.62
611.715	62.62
612.478	61.62
613.241	59.62
614.004	54.62
614.767	55.62
615.529	49.62
616.292	50.62
617.055	51.62
617.817	50.62
618.579	44.62
619.342	48.62
620.104	47.62
620.866	43.62
621.628	40.62
622.39	38.62
623.152	40.62
623.914	36.62
624.676	35.62
625.438	32.62
626.199	34.62
626.961	31.62
627.722	32.62
628.484	29.62
629.245	27.62
630.006	30.62
630.768	24.62
631.529	27.62
632.29	28.62
633.051	26.62
633.812	23.62
634.573	23.62
635.333	19.62
636.094	22.62
636.855	23.62
637.615	23.62
638.376	20.62
639.136	19.62
639.896	19.62
640.657	16.62
641.417	20.62
642.177	16.62
642.937	18.62
643.697	17.62
644.457	16.62
645.216	16.62
645.976	15.62
646.736	16.62
647.495	15.62
648.255	14.62
649.014	15.62
649.774	14.62
650.533	14.62
651.292	16.62
652.051	13.62
652.81	13.62
653.569	10.62
654.328	13.62
655.087	14.62
655.846	10.62
656.604	14.62
657.363	9.62
658.121	11.62
658.88	12.62
659.638	10.62
660.397	12.62
661.155	9.62
661.913	9.62
662.671	11.62
663.429	11.62
664.187	8.62
664.945	11.62
665.703	9.62
666.46	9.62
667.218	7.62
667.976	7.62
668.733	9.62
669.49	12.62
670.248	9.62
671.005	7.62
671.762	11.62
672.519	6.62
673.276	7.62
674.033	10.62
674.79	7.62
675.547	6.62
676.304	7.62
677.06	8.62
677.817	6.62
678.574	8.62
679.33	6.62
680.086	7.62
680.843	10.62
681.599	8.62
682.355	7.62
683.111	6.62
683.867	7.62
684.623	8.62
685.379	7.62
686.135	6.62
686.89	9.62
687.646	7.62
688.402	4.62
689.157	7.62
689.912	3.62
690.668	6.62
691.423	6.62
692.178	10.62
692.933	5.62
693.688	7.62
694.443	6.62
695.198	8.62
695.953	8.62
696.708	6.62
697.462	6.62
698.217	6.62
698.972	5.62
699.726	5.62
700.48	7.62
701.235	5.62
701.989	7.62
702.743	6.62
703.497	4.62
704.251	7.62
705.005	5.62
705.759	7.62
706.513	7.62
707.266	5.62
708.02	6.62
708.774	5.62
709.527	7.62
710.28	9.62
711.034	6.62
711.787	8.62
712.54	6.62
713.293	4.62
714.046	7.62
714.799	7.62
715.552	8.62
716.305	7.62
717.058	9.62
717.81	8.62
718.563	7.62
719.315	9.62
720.068	5.62
720.82	7.62
721.573	7.62
722.325	6.62
723.077	6.62
723.829	7.62
724.581	9.62
725.333	9.62
726.085	6.62
726.836	7.62
727.588	8.62
728.34	6.62
729.091	8.62
729.843	7.62
730.594	7.62
731.346	9.62
732.097	6.62
732.848	8.62
733.599	5.62
734.35	9.62
735.101	10.62
735.852	9.62
736.603	9.62
737.354	9.62
738.104	7.62
738.855	7.62
739.605	7.62
740.356	8.62
741.106	7.62
741.856	10.62
742.607	10.62
743.357	8.62
744.107	8.62
744.857	8.62
745.607	8.62
746.357	7.62
747.106	12.62
747.856	9.62
748.606	7.62
749.355	10.62
750.105	9.62
750.854	12.62
751.603	8.62
752.353	10.62
753.102	12.62
753.851	10.62
754.6	9.62
755.349	9.62
756.098	10.62
756.847	11.62
757.595	10.62
758.344	10.62
759.093	10.62
759.841	9.62
760.589	10.62
761.338	12.62
762.086	12.62
762.834	9.62
763.582	8.62
764.331	13.62
765.079	10.62
765.826	13.62
766.574	8.62
767.322	13.62
768.07	15.62
768.817	14.62
769.565	13.62
770.312	11.62
771.06	13.62
771.807	14.62
772.554	14.62
773.302	15.62
774.049	13.62
774.796	12.62
775.543	12.62
776.29	13.62
777.036	13.62
777.783	14.62
778.53	14.62
779.276	13.62
780.023	14.62
780.769	12.62
781.516	12.62
782.262	15.62
783.008	15.62
783.754	15.62
784.5	17.62
785.246	15.62
785.992	11.62
786.738	14.62
787.484	13.62
788.23	15.62
788.975	14.62
789.721	13.62
790.466	13.62
791.212	12.62
791.957	12.62
792.702	12.62
793.447	12.62
794.193	12.62
794.938	10.62
795.683	14.62
796.427	10.62
797.172	10.62
797.917	11.62
798.662	10.62
799.406	13.62
800.151	12.62
800.895	11.62
801.64	13.62
802.384	9.62
803.128	12.62
803.872	10.62
804.616	12.62
805.36	10.62
806.104	9.62
806.848	12.62
807.592	8.62
808.336	8.62
809.079	9.62
809.823	11.62
810.566	10.62
811.31	7.62
812.053	10.62
812.796	8.62
813.539	6.62
814.283	6.62
815.026	5.62
815.769	8.62
816.511	9.62
817.254	7.62
817.997	8.62
818.74	9.62
819.482	6.62
820.225	8.62
820.967	6.62
821.71	6.62
822.452	9.62
823.194	6.62
823.936	7.62
824.678	6.62
825.42	6.62
826.162	7.62
826.904	6.62
827.646	5.62
828.388	5.62
829.129	5.62
829.871	5.62
830.612	4.62
831.354	3.62
832.095	5.62
832.836	5.62
833.577	4.62
834.319	5.62
835.06	5.62
835.801	3.62
836.542	5.62
837.282	2.62
838.023	6.62
838.764	4.62
839.504	6.62
840.245	5.62
840.985	4.62
841.726	7.62
842.466	6.62
843.206	4.62
843.946	4.62
844.687	5.62
845.427	2.62
846.166	3.62
846.906	5.62
847.646	4.62
848.386	3.62
849.125	4.62
849.865	3.62
850.605	3.62
851.344	4.62
852.083	3.62
852.823	4.62
853.562	2.62
854.301	3.62
855.04	3.62
855.779	4.62
856.518	2.62
857.257	3.62
857.995	3.62
858.734	2.62
859.473	6.62
860.211	3.62
860.95	4.62
861.688	4.62
862.426	3.62
863.165	2.62
863.903	1.62
864.641	4.62
865.379	2.62
866.117	2.62
866.855	2.62
867.593	1.62
868.33	3.62
869.068	0.62
869.806	0.62
870.543	3.62
871.28	2.62
872.018	1.62
872.755	0.62
873.492	1.62
874.229	0.62
874.967	2.62
875.703	0.62
876.44	0.62
877.177	2.62
877.914	-0.38
878.651	2.62
879.387	0.62
880.124	1.62
880.86	1.62
881.597	2.62
882.333	1.62
883.069	0.62
883.806	1.62
884.542	2.62
885.278	-0.38
886.014	2.62
886.749	-0.38
887.485	1.62
888.221	2.62
888.957	1.62
889.692	0.62
890.428	0.62
891.163	0.62
891.899	1.62
892.634	1.62
893.369	2.62
894.104	1.62
894.839	0.62
895.574	0.62
896.309	0.62
897.044	-0.38
897.779	1.62
898.514	-1.38
899.248	0.62
899.983	-0.38
900.717	-0.38
901.452	2.62
902.186	1.62
902.92	1.62
903.654	-1.38
904.389	0.62
905.123	1.62
905.857	-0.38
906.59	0.62
907.324	1.62
908.058	-0.38
908.792	2.62
909.525	-1.38
910.259	0.62
910.992	1.62
911.726	0.62
912.459	0.62
913.192	0.62
913.925	1.62
914.658	-1.38
915.391	2.62
916.124	0.62
916.857	-2.38
917.59	1.62
918.323	0.62
919.055	1.62
919.788	-0.38
920.521	2.62
921.253	-1.38
921.985	1.62
922.718	0.62
923.45	0.62
924.182	2.62
924.914	0.62
925.646	0.62
926.378	0.62
927.11	1.62
927.841	-1.38
928.573	-1.38
929.305	-1.38
930.036	-0.38
930.768	-2.38
931.499	0.62
932.23	-2.38
932.962	1.62
933.693	-0.38
934.424	0.62
935.155	0.62
935.886	0.62
936.617	-0.38
937.348	-0.38
938.078	0.62
938.809	-0.38
939.54	-1.38
940.27	1.62
941.001	-0.38
941.731	0.62
942.461	-1.38
943.191	0.62
943.922	-1.38
944.652	-1.38
945.382	1.62
946.112	1.62
946.841	-0.38
947.571	-1.38
948.301	-1.38
949.031	2.62
949.76	-0.38
950.49	0.62
951.219	-0.38
951.948	0.62
952.678	0.62
953.407	-1.38
954.136	0.62
954.865	-2.38
955.594	0.62
956.323	-2.38
957.052	-0.38
957.78	-0.38
958.509	1.62
959.238	1.62
959.966	-1.38
960.695	-2.38
961.423	-0.38
962.151	-1.38
962.88	2.62
963.608	-0.38
964.336	1.62
965.064	-1.38
965.792	-1.38
966.52	-1.38
967.247	-0.38
967.975	-0.38
968.703	-2.38
969.43	0.62
970.158	-1.38
970.885	0.62
971.613	-0.38
972.34	-1.38
973.067	0.62
973.794	-1.38
974.521	-0.38
975.248	1.62
975.975	-0.38
976.702	0.62
977.429	-2.38
978.156	-0.38
978.882	0.62
979.609	-0.38
980.335	0.62
981.062	0.62
981.788	0.62
982.514	-2.38
983.24	0.62
983.967	-1.38
984.693	-0.38
985.419	1.62
986.144	-1.38
986.87	1.62
987.596	0.62
988.322	0.62
989.047	0.62
989.773	1.62
990.498	1.62
991.224	-3.38
991.949	-0.38
992.674	0.62
993.399	0.62
994.124	0.62
994.849	-2.38
995.574	1.62
996.299	-1.38
997.024	1.62
997.749	-1.38
998.473	1.62
999.198	-0.38
999.922	0.62
1000.647	0.62
1001.371	2.62
1002.095	-1.38
1002.82	-1.38
1003.544	-1.38
1004.268	4.62
1004.992	4.62
1005.716	2.62
1006.439	5.62
1007.163	6.62
1007.887	5.62
1008.611	-0.38
1009.334	-0.38
1010.058	1.62
1010.781	-1.38
1011.504	0.62
1012.228	1.62
1012.951	1.62
1013.674	-1.38
1014.397	-0.38
1015.12	1.62
