节点500_705_QEPB04081__636__20-54-59-762.txt的数据

Date: Wed Nov 12 20:54:59 CST 2025
User: PC
Spectrometer: QEPB0408
触发模式: 0
积分时间 (秒): 1.000000E-2
Scans to average: 1
启用暗噪声校正: true
启用非线性校正: false
滑动平均宽度: 0
X轴模式: Wavelengths
Number of Pixels in Spectrum: 1044
>>>>>Begin Spectral Data<<<<<
220.843	5.62
221.644	4.62
222.444	6.62
223.244	5.62
224.045	5.62
224.845	6.62
225.645	6.62
226.445	5.62
227.245	4.62
228.045	8.62
228.845	6.62
229.645	8.62
230.444	7.62
231.244	8.62
232.043	8.62
232.843	7.62
233.642	6.62
234.442	11.62
235.241	10.62
236.04	8.62
236.839	8.62
237.638	8.62
238.437	9.62
239.236	9.62
240.035	10.62
240.833	11.62
241.632	9.62
242.43	8.62
243.229	11.62
244.027	13.62
244.826	12.62
245.624	12.62
246.422	11.62
247.22	13.62
248.018	12.62
248.816	13.62
249.614	13.62
250.412	13.62
251.21	14.62
252.007	15.62
252.805	16.62
253.602	16.62
254.4	15.62
255.197	15.62
255.994	13.62
256.791	15.62
257.589	17.62
258.386	21.62
259.183	21.62
259.979	19.62
260.776	19.62
261.573	19.62
262.37	20.62
263.166	20.62
263.963	20.62
264.759	21.62
265.556	19.62
266.352	22.62
267.148	23.62
267.944	26.62
268.74	24.62
269.536	24.62
270.332	26.62
271.128	24.62
271.924	27.62
272.719	26.62
273.515	26.62
274.311	26.62
275.106	28.62
275.901	29.62
276.697	28.62
277.492	30.62
278.287	28.62
279.082	31.62
279.877	29.62
280.672	29.62
281.467	30.62
282.262	28.62
283.056	30.62
283.851	32.62
284.646	27.62
285.44	29.62
286.234	26.62
287.029	32.62
287.823	33.62
288.617	29.62
289.411	30.62
290.205	31.62
290.999	29.62
291.793	29.62
292.587	30.62
293.381	28.62
294.174	27.62
294.968	29.62
295.761	28.62
296.555	26.62
297.348	25.62
298.141	24.62
298.935	26.62
299.728	21.62
300.521	26.62
301.314	24.62
302.107	23.62
302.899	21.62
303.692	20.62
304.485	23.62
305.277	20.62
306.07	23.62
306.862	23.62
307.655	23.62
308.447	17.62
309.239	19.62
310.031	20.62
310.823	15.62
311.615	17.62
312.407	17.62
313.199	16.62
313.991	15.62
314.783	17.62
315.574	17.62
316.366	16.62
317.157	15.62
317.949	16.62
318.74	16.62
319.531	15.62
320.322	12.62
321.113	13.62
321.904	11.62
322.695	15.62
323.486	12.62
324.277	12.62
325.068	15.62
325.858	13.62
326.649	11.62
327.439	10.62
328.23	13.62
329.02	12.62
329.81	9.62
330.6	10.62
331.391	12.62
332.181	10.62
332.971	12.62
333.76	12.62
334.55	8.62
335.34	10.62
336.13	11.62
336.919	10.62
337.709	11.62
338.498	10.62
339.287	11.62
340.077	11.62
340.866	12.62
341.655	10.62
342.444	12.62
343.233	9.62
344.022	12.62
344.811	9.62
345.6	12.62
346.388	11.62
347.177	11.62
347.965	11.62
348.754	9.62
349.542	9.62
350.33	10.62
351.119	8.62
351.907	9.62
352.695	9.62
353.483	12.62
354.271	12.62
355.059	11.62
355.846	9.62
356.634	8.62
357.422	9.62
358.209	10.62
358.997	10.62
359.784	10.62
360.571	10.62
361.359	9.62
362.146	9.62
362.933	10.62
363.72	7.62
364.507	9.62
365.294	9.62
366.081	10.62
366.867	10.62
367.654	8.62
368.44	9.62
369.227	9.62
370.013	10.62
370.8	11.62
371.586	7.62
372.372	10.62
373.158	9.62
373.944	9.62
374.73	6.62
375.516	9.62
376.302	10.62
377.088	8.62
377.873	10.62
378.659	7.62
379.445	9.62
380.23	9.62
381.015	9.62
381.801	10.62
382.586	9.62
383.371	10.62
384.156	8.62
384.941	11.62
385.726	8.62
386.511	10.62
387.296	10.62
388.08	11.62
388.865	12.62
389.649	11.62
390.434	9.62
391.218	11.62
392.003	10.62
392.787	13.62
393.571	10.62
394.355	11.62
395.139	10.62
395.923	9.62
396.707	10.62
397.491	11.62
398.274	12.62
399.058	9.62
399.842	10.62
400.625	12.62
401.408	13.62
402.192	12.62
402.975	11.62
403.758	14.62
404.541	14.62
405.324	11.62
406.107	13.62
406.89	12.62
407.673	14.62
408.456	13.62
409.238	14.62
410.021	14.62
410.803	14.62
411.586	15.62
412.368	16.62
413.151	16.62
413.933	14.62
414.715	17.62
415.497	17.62
416.279	13.62
417.061	17.62
417.843	15.62
418.624	17.62
419.406	18.62
420.188	20.62
420.969	19.62
421.751	20.62
422.532	19.62
423.313	19.62
424.095	22.62
424.876	24.62
425.657	24.62
426.438	22.62
427.219	24.62
428	24.62
428.78	24.62
429.561	26.62
430.342	26.62
431.122	30.62
431.903	32.62
432.683	30.62
433.464	35.62
434.244	36.62
435.024	40.62
435.804	37.62
436.584	42.62
437.364	47.62
438.144	48.62
438.924	47.62
439.704	56.62
440.483	58.62
441.263	60.62
442.042	65.62
442.822	70.62
443.601	75.62
444.38	81.62
445.16	94.62
445.939	99.62
446.718	110.62
447.497	113.62
448.276	131.62
449.054	141.62
449.833	159.62
450.612	173.62
451.391	185.62
452.169	213.62
452.948	227.62
453.726	252.62
454.504	290.62
455.282	324.62
456.061	357.62
456.839	388.62
457.617	445.62
458.395	488.62
459.172	540.62
459.95	608.62
460.728	669.62
461.506	751.62
462.283	824.62
463.061	922.62
463.838	1021.62
464.615	1127.62
465.393	1260.62
466.17	1399.62
466.947	1531.62
467.724	1706.62
468.501	1878.62
469.278	2085.62
470.055	2276.62
470.831	2504.62
471.608	2754.62
472.385	3018.62
473.161	3297.62
473.938	3606.62
474.714	3944.62
475.49	4330.62
476.266	4708.62
477.043	5130.62
477.819	5550.62
478.595	6042.62
479.371	6551.62
480.146	7112.62
480.922	7754.62
481.698	8406.62
482.473	9122.62
483.249	9795.62
484.024	10606.62
484.8	11438.62
485.575	12379.62
486.35	13320.62
487.126	14369.62
487.901	15442.62
488.676	16594.62
489.451	17817.62
490.225	19125.62
491	20513.62
491.775	21809.62
492.55	23346.62
493.324	24848.62
494.099	26332.62
494.873	27979.62
495.647	29493.62
496.422	31063.62
497.196	32649.62
497.97	34189.62
498.744	35553.62
499.518	37110.62
500.292	38484.62
501.066	39548.62
501.839	40560.62
502.613	41478.62
503.387	42302.62
504.16	42932.62
504.934	43323.62
505.707	43584.62
506.48	43570.62
507.253	43435.62
508.027	43164.62
508.8	42586.62
509.573	41866.62
510.346	41190.62
511.118	40440.62
511.891	39448.62
512.664	38125.62
513.437	36884.62
514.209	35681.62
514.982	34487.62
515.754	33183.62
516.526	31955.62
517.298	30791.62
518.071	29560.62
518.843	28435.62
519.615	27328.62
520.387	26226.62
521.159	25229.62
521.93	24268.62
522.702	23210.62
523.474	22307.62
524.245	21365.62
525.017	20473.62
525.788	19649.62
526.56	18802.62
527.331	18080.62
528.102	17171.62
528.873	16424.62
529.644	15607.62
530.415	14944.62
531.186	14276.62
531.957	13534.62
532.728	12897.62
533.498	12218.62
534.269	11582.62
535.039	11014.62
535.81	10459.62
536.58	9887.62
537.351	9333.62
538.121	8904.62
538.891	8389.62
539.661	7944.62
540.431	7506.62
541.201	7139.62
541.971	6742.62
542.741	6380.62
543.51	6096.62
544.28	5772.62
545.05	5515.62
545.819	5267.62
546.588	5025.62
547.358	4787.62
548.127	4570.62
548.896	4307.62
549.665	4108.62
550.434	3873.62
551.203	3709.62
551.972	3495.62
552.741	3310.62
553.51	3150.62
554.278	2979.62
555.047	2799.62
555.815	2657.62
556.584	2517.62
557.352	2373.62
558.121	2247.62
558.889	2126.62
559.657	2006.62
560.425	1902.62
561.193	1811.62
561.961	1709.62
562.729	1616.62
563.496	1520.62
564.264	1443.62
565.032	1356.62
565.799	1292.62
566.567	1216.62
567.334	1150.62
568.101	1086.62
568.869	1036.62
569.636	980.62
570.403	919.62
571.17	856.62
571.937	827.62
572.704	778.62
573.471	737.62
574.237	683.62
575.004	651.62
575.771	605.62
576.537	577.62
577.303	552.62
578.07	514.62
578.836	491.62
579.602	461.62
580.368	442.62
581.134	412.62
581.9	398.62
582.666	373.62
583.432	357.62
584.198	341.62
584.964	327.62
585.729	296.62
586.495	291.62
587.26	279.62
588.025	259.62
588.791	243.62
589.556	231.62
590.321	218.62
591.086	213.62
591.851	197.62
592.616	190.62
593.381	180.62
594.146	171.62
594.911	169.62
595.675	153.62
596.44	155.62
597.204	141.62
597.969	138.62
598.733	132.62
599.497	121.62
600.261	117.62
601.025	116.62
601.79	110.62
602.553	111.62
603.317	100.62
604.081	95.62
604.845	94.62
605.609	87.62
606.372	87.62
607.136	83.62
607.899	77.62
608.662	78.62
609.426	74.62
610.189	69.62
610.952	66.62
611.715	65.62
612.478	62.62
613.241	59.62
614.004	58.62
614.767	55.62
615.529	53.62
616.292	49.62
617.055	49.62
617.817	44.62
618.579	45.62
619.342	49.62
620.104	42.62
620.866	42.62
621.628	41.62
622.39	41.62
623.152	39.62
623.914	35.62
624.676	34.62
625.438	33.62
626.199	33.62
626.961	30.62
627.722	31.62
628.484	29.62
629.245	28.62
630.006	29.62
630.768	28.62
631.529	29.62
632.29	24.62
633.051	25.62
633.812	24.62
634.573	26.62
635.333	24.62
636.094	20.62
636.855	21.62
637.615	21.62
638.376	21.62
639.136	19.62
639.896	17.62
640.657	17.62
641.417	14.62
642.177	18.62
642.937	18.62
643.697	17.62
644.457	16.62
645.216	16.62
645.976	15.62
646.736	18.62
647.495	17.62
648.255	14.62
649.014	16.62
649.774	13.62
650.533	12.62
651.292	13.62
652.051	15.62
652.81	11.62
653.569	12.62
654.328	12.62
655.087	12.62
655.846	12.62
656.604	10.62
657.363	10.62
658.121	12.62
658.88	10.62
659.638	10.62
660.397	11.62
661.155	10.62
661.913	9.62
662.671	8.62
663.429	11.62
664.187	9.62
664.945	11.62
665.703	7.62
666.46	8.62
667.218	10.62
667.976	7.62
668.733	9.62
669.49	8.62
670.248	6.62
671.005	10.62
671.762	9.62
672.519	7.62
673.276	11.62
674.033	8.62
674.79	9.62
675.547	6.62
676.304	9.62
677.06	8.62
677.817	7.62
678.574	9.62
679.33	6.62
680.086	6.62
680.843	5.62
681.599	7.62
682.355	6.62
683.111	9.62
683.867	5.62
684.623	9.62
685.379	9.62
686.135	7.62
686.89	5.62
687.646	7.62
688.402	8.62
689.157	8.62
689.912	6.62
690.668	4.62
691.423	6.62
692.178	8.62
692.933	8.62
693.688	6.62
694.443	10.62
695.198	3.62
695.953	9.62
696.708	6.62
697.462	6.62
698.217	5.62
698.972	7.62
699.726	8.62
700.48	6.62
701.235	8.62
701.989	4.62
702.743	9.62
703.497	9.62
704.251	6.62
705.005	8.62
705.759	4.62
706.513	9.62
707.266	8.62
708.02	8.62
708.774	6.62
709.527	4.62
710.28	7.62
711.034	6.62
711.787	4.62
712.54	5.62
713.293	4.62
714.046	6.62
714.799	5.62
715.552	8.62
716.305	8.62
717.058	7.62
717.81	6.62
718.563	5.62
719.315	8.62
720.068	7.62
720.82	8.62
721.573	8.62
722.325	7.62
723.077	7.62
723.829	6.62
724.581	7.62
725.333	7.62
726.085	6.62
726.836	8.62
727.588	9.62
728.34	8.62
729.091	6.62
729.843	8.62
730.594	8.62
731.346	9.62
732.097	9.62
732.848	7.62
733.599	7.62
734.35	5.62
735.101	8.62
735.852	8.62
736.603	6.62
737.354	10.62
738.104	8.62
738.855	10.62
739.605	7.62
740.356	7.62
741.106	9.62
741.856	8.62
742.607	10.62
743.357	9.62
744.107	8.62
744.857	9.62
745.607	7.62
746.357	10.62
747.106	9.62
747.856	8.62
748.606	9.62
749.355	9.62
750.105	10.62
750.854	10.62
751.603	8.62
752.353	12.62
753.102	10.62
753.851	8.62
754.6	10.62
755.349	8.62
756.098	10.62
756.847	8.62
757.595	10.62
758.344	11.62
759.093	11.62
759.841	8.62
760.589	10.62
761.338	8.62
762.086	10.62
762.834	9.62
763.582	10.62
764.331	11.62
765.079	9.62
765.826	12.62
766.574	10.62
767.322	12.62
768.07	12.62
768.817	12.62
769.565	11.62
770.312	10.62
771.06	12.62
771.807	10.62
772.554	11.62
773.302	13.62
774.049	13.62
774.796	12.62
775.543	13.62
776.29	16.62
777.036	13.62
777.783	14.62
778.53	16.62
779.276	12.62
780.023	15.62
780.769	11.62
781.516	15.62
782.262	13.62
783.008	13.62
783.754	15.62
784.5	14.62
785.246	13.62
785.992	13.62
786.738	11.62
787.484	14.62
788.23	15.62
788.975	14.62
789.721	12.62
790.466	13.62
791.212	13.62
791.957	12.62
792.702	13.62
793.447	13.62
794.193	12.62
794.938	14.62
795.683	13.62
796.427	14.62
797.172	12.62
797.917	13.62
798.662	10.62
799.406	13.62
800.151	10.62
800.895	10.62
801.64	9.62
802.384	13.62
803.128	8.62
803.872	10.62
804.616	11.62
805.36	9.62
806.104	9.62
806.848	10.62
807.592	10.62
808.336	9.62
809.079	10.62
809.823	7.62
810.566	11.62
811.31	8.62
812.053	9.62
812.796	8.62
813.539	6.62
814.283	9.62
815.026	7.62
815.769	6.62
816.511	9.62
817.254	9.62
817.997	8.62
818.74	6.62
819.482	6.62
820.225	8.62
820.967	7.62
821.71	7.62
822.452	10.62
823.194	5.62
823.936	5.62
824.678	5.62
825.42	6.62
826.162	6.62
826.904	5.62
827.646	8.62
828.388	7.62
829.129	7.62
829.871	7.62
830.612	5.62
831.354	7.62
832.095	5.62
832.836	5.62
833.577	8.62
834.319	4.62
835.06	6.62
835.801	5.62
836.542	4.62
837.282	5.62
838.023	5.62
838.764	7.62
839.504	5.62
840.245	4.62
840.985	5.62
841.726	4.62
842.466	3.62
843.206	3.62
843.946	6.62
844.687	4.62
845.427	4.62
846.166	3.62
846.906	6.62
847.646	4.62
848.386	5.62
849.125	4.62
849.865	4.62
850.605	3.62
851.344	6.62
852.083	5.62
852.823	4.62
853.562	3.62
854.301	3.62
855.04	4.62
855.779	2.62
856.518	3.62
857.257	4.62
857.995	3.62
858.734	2.62
859.473	2.62
860.211	5.62
860.95	2.62
861.688	3.62
862.426	2.62
863.165	3.62
863.903	2.62
864.641	6.62
865.379	2.62
866.117	1.62
866.855	2.62
867.593	1.62
868.33	2.62
869.068	1.62
869.806	2.62
870.543	1.62
871.28	0.62
872.018	2.62
872.755	-1.38
873.492	4.62
874.229	4.62
874.967	1.62
875.703	2.62
876.44	-0.38
877.177	0.62
877.914	1.62
878.651	0.62
879.387	3.62
880.124	1.62
880.86	1.62
881.597	-0.38
882.333	1.62
883.069	2.62
883.806	-1.38
884.542	2.62
885.278	-1.38
886.014	0.62
886.749	-0.38
887.485	1.62
888.221	0.62
888.957	0.62
889.692	0.62
890.428	0.62
891.163	1.62
891.899	0.62
892.634	3.62
893.369	2.62
894.104	1.62
894.839	2.62
895.574	-0.38
896.309	1.62
897.044	2.62
897.779	0.62
898.514	0.62
899.248	0.62
899.983	2.62
900.717	-1.38
901.452	-0.38
902.186	1.62
902.92	2.62
903.654	2.62
904.389	0.62
905.123	0.62
905.857	-0.38
906.59	-0.38
907.324	1.62
908.058	3.62
908.792	0.62
909.525	1.62
910.259	2.62
910.992	1.62
911.726	-0.38
912.459	-0.38
913.192	-2.38
913.925	2.62
914.658	1.62
915.391	-0.38
916.124	0.62
916.857	-0.38
917.59	0.62
918.323	-3.38
919.055	1.62
919.788	-0.38
920.521	1.62
921.253	2.62
921.985	-1.38
922.718	-0.38
923.45	0.62
924.182	-1.38
924.914	2.62
925.646	-1.38
926.378	-0.38
927.11	-0.38
927.841	-0.38
928.573	-0.38
929.305	0.62
930.036	-1.38
930.768	-0.38
931.499	0.62
932.23	1.62
932.962	-1.38
933.693	-0.38
934.424	0.62
935.155	0.62
935.886	-0.38
936.617	0.62
937.348	-2.38
938.078	3.62
938.809	0.62
939.54	0.62
940.27	-1.38
941.001	-0.38
941.731	1.62
942.461	-1.38
943.191	0.62
943.922	1.62
944.652	0.62
945.382	0.62
946.112	-0.38
946.841	-0.38
947.571	-1.38
948.301	-0.38
949.031	-0.38
949.76	0.62
950.49	0.62
951.219	-1.38
951.948	-0.38
952.678	0.62
953.407	-1.38
954.136	2.62
954.865	0.62
955.594	1.62
956.323	1.62
957.052	2.62
957.78	-1.38
958.509	0.62
959.238	1.62
959.966	-1.38
960.695	0.62
961.423	-1.38
962.151	-0.38
962.88	-1.38
963.608	-0.38
964.336	1.62
965.064	0.62
965.792	2.62
966.52	-1.38
967.247	0.62
967.975	1.62
968.703	0.62
969.43	0.62
970.158	1.62
970.885	-0.38
971.613	0.62
972.34	-1.38
973.067	-0.38
973.794	-0.38
974.521	-0.38
975.248	-1.38
975.975	1.62
976.702	-0.38
977.429	1.62
978.156	-1.38
978.882	-0.38
979.609	-1.38
980.335	-0.38
981.062	1.62
981.788	2.62
982.514	-2.38
983.24	-0.38
983.967	-1.38
984.693	-0.38
985.419	0.62
986.144	-0.38
986.87	0.62
987.596	0.62
988.322	-1.38
989.047	1.62
989.773	-0.38
990.498	-0.38
991.224	-2.38
991.949	1.62
992.674	0.62
993.399	1.62
994.124	0.62
994.849	0.62
995.574	1.62
996.299	-0.38
997.024	-1.38
997.749	-1.38
998.473	-0.38
999.198	-1.38
999.922	-0.38
1000.647	-0.38
1001.371	1.62
1002.095	-1.38
1002.82	-1.38
1003.544	0.62
1004.268	1.62
1004.992	2.62
1005.716	1.62
1006.439	7.62
1007.163	4.62
1007.887	6.62
1008.611	-1.38
1009.334	-1.38
1010.058	0.62
1010.781	0.62
1011.504	-0.38
1012.228	-0.38
1012.951	1.62
1013.674	0.62
1014.397	-1.38
1015.12	-0.38
