节点500_705_QEPB04081__187__20-48-55-083.txt的数据

Date: Wed Nov 12 20:48:55 CST 2025
User: PC
Spectrometer: QEPB0408
触发模式: 0
积分时间 (秒): 1.000000E-2
Scans to average: 1
启用暗噪声校正: true
启用非线性校正: false
滑动平均宽度: 0
X轴模式: Wavelengths
Number of Pixels in Spectrum: 1044
>>>>>Begin Spectral Data<<<<<
220.843	6.25
221.644	7.25
222.444	4.25
223.244	6.25
224.045	6.25
224.845	7.25
225.645	6.25
226.445	8.25
227.245	7.25
228.045	8.25
228.845	9.25
229.645	9.25
230.444	8.25
231.244	7.25
232.043	11.25
232.843	8.25
233.642	11.25
234.442	7.25
235.241	9.25
236.04	11.25
236.839	13.25
237.638	8.25
238.437	11.25
239.236	8.25
240.035	14.25
240.833	11.25
241.632	13.25
242.43	11.25
243.229	13.25
244.027	11.25
244.826	13.25
245.624	17.25
246.422	16.25
247.22	14.25
248.018	17.25
248.816	17.25
249.614	16.25
250.412	17.25
251.21	16.25
252.007	17.25
252.805	18.25
253.602	18.25
254.4	18.25
255.197	19.25
255.994	20.25
256.791	20.25
257.589	21.25
258.386	24.25
259.183	20.25
259.979	24.25
260.776	26.25
261.573	23.25
262.37	22.25
263.166	27.25
263.963	25.25
264.759	28.25
265.556	27.25
266.352	29.25
267.148	27.25
267.944	31.25
268.74	31.25
269.536	29.25
270.332	27.25
271.128	34.25
271.924	30.25
272.719	33.25
273.515	38.25
274.311	35.25
275.106	33.25
275.901	36.25
276.697	35.25
277.492	38.25
278.287	34.25
279.082	36.25
279.877	36.25
280.672	33.25
281.467	39.25
282.262	37.25
283.056	36.25
283.851	37.25
284.646	34.25
285.44	35.25
286.234	35.25
287.029	34.25
287.823	34.25
288.617	31.25
289.411	33.25
290.205	34.25
290.999	33.25
291.793	34.25
292.587	31.25
293.381	32.25
294.174	30.25
294.968	30.25
295.761	30.25
296.555	27.25
297.348	29.25
298.141	30.25
298.935	31.25
299.728	26.25
300.521	24.25
301.314	23.25
302.107	25.25
302.899	22.25
303.692	23.25
304.485	24.25
305.277	25.25
306.07	26.25
306.862	22.25
307.655	24.25
308.447	21.25
309.239	23.25
310.031	18.25
310.823	19.25
311.615	18.25
312.407	19.25
313.199	19.25
313.991	16.25
314.783	19.25
315.574	17.25
316.366	16.25
317.157	16.25
317.949	17.25
318.74	13.25
319.531	17.25
320.322	13.25
321.113	15.25
321.904	15.25
322.695	15.25
323.486	14.25
324.277	13.25
325.068	12.25
325.858	12.25
326.649	12.25
327.439	14.25
328.23	14.25
329.02	14.25
329.81	13.25
330.6	13.25
331.391	13.25
332.181	13.25
332.971	14.25
333.76	11.25
334.55	14.25
335.34	12.25
336.13	9.25
336.919	14.25
337.709	11.25
338.498	13.25
339.287	13.25
340.077	9.25
340.866	10.25
341.655	9.25
342.444	12.25
343.233	12.25
344.022	13.25
344.811	11.25
345.6	10.25
346.388	12.25
347.177	13.25
347.965	11.25
348.754	13.25
349.542	11.25
350.33	11.25
351.119	11.25
351.907	12.25
352.695	12.25
353.483	11.25
354.271	8.25
355.059	13.25
355.846	10.25
356.634	11.25
357.422	9.25
358.209	10.25
358.997	9.25
359.784	10.25
360.571	9.25
361.359	8.25
362.146	9.25
362.933	10.25
363.72	11.25
364.507	11.25
365.294	11.25
366.081	11.25
366.867	8.25
367.654	10.25
368.44	10.25
369.227	10.25
370.013	9.25
370.8	10.25
371.586	12.25
372.372	11.25
373.158	10.25
373.944	9.25
374.73	13.25
375.516	9.25
376.302	9.25
377.088	11.25
377.873	11.25
378.659	11.25
379.445	11.25
380.23	11.25
381.015	9.25
381.801	11.25
382.586	10.25
383.371	9.25
384.156	10.25
384.941	10.25
385.726	11.25
386.511	12.25
387.296	8.25
388.08	12.25
388.865	11.25
389.649	11.25
390.434	12.25
391.218	13.25
392.003	11.25
392.787	13.25
393.571	12.25
394.355	11.25
395.139	15.25
395.923	15.25
396.707	11.25
397.491	14.25
398.274	13.25
399.058	15.25
399.842	13.25
400.625	14.25
401.408	15.25
402.192	13.25
402.975	15.25
403.758	18.25
404.541	15.25
405.324	13.25
406.107	16.25
406.89	18.25
407.673	12.25
408.456	17.25
409.238	18.25
410.021	14.25
410.803	15.25
411.586	18.25
412.368	16.25
413.151	17.25
413.933	20.25
414.715	15.25
415.497	19.25
416.279	18.25
417.061	19.25
417.843	19.25
418.624	20.25
419.406	21.25
420.188	23.25
420.969	20.25
421.751	22.25
422.532	22.25
423.313	23.25
424.095	23.25
424.876	25.25
425.657	26.25
426.438	28.25
427.219	26.25
428	26.25
428.78	28.25
429.561	33.25
430.342	32.25
431.122	30.25
431.903	34.25
432.683	35.25
433.464	39.25
434.244	36.25
435.024	41.25
435.804	42.25
436.584	43.25
437.364	44.25
438.144	47.25
438.924	48.25
439.704	57.25
440.483	58.25
441.263	62.25
442.042	67.25
442.822	69.25
443.601	74.25
444.38	77.25
445.16	84.25
445.939	97.25
446.718	98.25
447.497	108.25
448.276	116.25
449.054	127.25
449.833	143.25
450.612	157.25
451.391	171.25
452.169	190.25
452.948	212.25
453.726	232.25
454.504	258.25
455.282	287.25
456.061	319.25
456.839	359.25
457.617	400.25
458.395	447.25
459.172	487.25
459.95	556.25
460.728	611.25
461.506	698.25
462.283	763.25
463.061	861.25
463.838	952.25
464.615	1061.25
465.393	1192.25
466.17	1335.25
466.947	1482.25
467.724	1629.25
468.501	1820.25
469.278	2007.25
470.055	2260.25
470.831	2483.25
471.608	2748.25
472.385	3040.25
473.161	3357.25
473.938	3702.25
474.714	4043.25
475.49	4473.25
476.266	4915.25
477.043	5369.25
477.819	5928.25
478.595	6492.25
479.371	7106.25
480.146	7773.25
480.922	8500.25
481.698	9295.25
482.473	10128.25
483.249	11007.25
484.024	12008.25
484.8	13090.25
485.575	14170.25
486.35	15475.25
487.126	16777.25
487.901	18087.25
488.676	19559.25
489.451	21183.25
490.225	22772.25
491	24487.25
491.775	26245.25
492.55	28093.25
493.324	29826.25
494.099	31724.25
494.873	33623.25
495.647	35491.25
496.422	37430.25
497.196	39296.25
497.97	40927.25
498.744	42451.25
499.518	44030.25
500.292	45335.25
501.066	46312.25
501.839	47150.25
502.613	47866.25
503.387	48354.25
504.16	48653.25
504.934	48651.25
505.707	48401.25
506.48	47936.25
507.253	47172.25
508.027	46394.25
508.8	45254.25
509.573	44044.25
510.346	42890.25
511.118	41704.25
511.891	40285.25
512.664	38727.25
513.437	37187.25
514.209	35766.25
514.982	34275.25
515.754	32836.25
516.526	31498.25
517.298	30236.25
518.071	28981.25
518.843	27818.25
519.615	26675.25
520.387	25711.25
521.159	24621.25
521.93	23604.25
522.702	22627.25
523.474	21660.25
524.245	20725.25
525.017	19752.25
525.788	18930.25
526.56	18119.25
527.331	17267.25
528.102	16341.25
528.873	15543.25
529.644	14824.25
530.415	14133.25
531.186	13446.25
531.957	12673.25
532.728	12003.25
533.498	11367.25
534.269	10770.25
535.039	10226.25
535.81	9639.25
536.58	9126.25
537.351	8580.25
538.121	8182.25
538.891	7708.25
539.661	7329.25
540.431	6920.25
541.201	6553.25
541.971	6195.25
542.741	5874.25
543.51	5581.25
544.28	5331.25
545.05	5052.25
545.819	4827.25
546.588	4585.25
547.358	4387.25
548.127	4163.25
548.896	3940.25
549.665	3757.25
550.434	3530.25
551.203	3356.25
551.972	3194.25
552.741	3014.25
553.51	2823.25
554.278	2681.25
555.047	2517.25
555.815	2379.25
556.584	2261.25
557.352	2128.25
558.121	2022.25
558.889	1904.25
559.657	1802.25
560.425	1701.25
561.193	1616.25
561.961	1531.25
562.729	1441.25
563.496	1350.25
564.264	1284.25
565.032	1223.25
565.799	1153.25
566.567	1100.25
567.334	1025.25
568.101	975.25
568.869	921.25
569.636	870.25
570.403	819.25
571.17	785.25
571.937	736.25
572.704	688.25
573.471	655.25
574.237	620.25
575.004	581.25
575.771	546.25
576.537	508.25
577.303	491.25
578.07	456.25
578.836	426.25
579.602	411.25
580.368	387.25
581.134	372.25
581.9	356.25
582.666	334.25
583.432	315.25
584.198	296.25
584.964	286.25
585.729	270.25
586.495	253.25
587.26	241.25
588.025	233.25
588.791	220.25
589.556	202.25
590.321	198.25
591.086	189.25
591.851	181.25
592.616	166.25
593.381	166.25
594.146	153.25
594.911	149.25
595.675	145.25
596.44	138.25
597.204	132.25
597.969	122.25
598.733	122.25
599.497	112.25
600.261	111.25
601.025	106.25
601.79	99.25
602.553	97.25
603.317	93.25
604.081	91.25
604.845	89.25
605.609	83.25
606.372	80.25
607.136	77.25
607.899	72.25
608.662	68.25
609.426	67.25
610.189	67.25
610.952	67.25
611.715	59.25
612.478	60.25
613.241	55.25
614.004	54.25
614.767	51.25
615.529	50.25
616.292	50.25
617.055	45.25
617.817	46.25
618.579	43.25
619.342	46.25
620.104	40.25
620.866	41.25
621.628	40.25
622.39	37.25
623.152	40.25
623.914	33.25
624.676	32.25
625.438	35.25
626.199	30.25
626.961	30.25
627.722	32.25
628.484	30.25
629.245	29.25
630.006	29.25
630.768	27.25
631.529	27.25
632.29	25.25
633.051	25.25
633.812	26.25
634.573	22.25
635.333	24.25
636.094	21.25
636.855	19.25
637.615	24.25
638.376	22.25
639.136	20.25
639.896	20.25
640.657	20.25
641.417	17.25
642.177	19.25
642.937	21.25
643.697	19.25
644.457	17.25
645.216	16.25
645.976	14.25
646.736	18.25
647.495	16.25
648.255	15.25
649.014	14.25
649.774	14.25
650.533	15.25
651.292	14.25
652.051	16.25
652.81	14.25
653.569	12.25
654.328	14.25
655.087	14.25
655.846	14.25
656.604	13.25
657.363	12.25
658.121	12.25
658.88	10.25
659.638	11.25
660.397	9.25
661.155	13.25
661.913	10.25
662.671	13.25
663.429	10.25
664.187	9.25
664.945	10.25
665.703	10.25
666.46	10.25
667.218	10.25
667.976	10.25
668.733	11.25
669.49	11.25
670.248	9.25
671.005	11.25
671.762	10.25
672.519	8.25
673.276	8.25
674.033	9.25
674.79	8.25
675.547	9.25
676.304	8.25
677.06	8.25
677.817	8.25
678.574	9.25
679.33	9.25
680.086	9.25
680.843	8.25
681.599	10.25
682.355	9.25
683.111	7.25
683.867	8.25
684.623	8.25
685.379	9.25
686.135	6.25
686.89	7.25
687.646	9.25
688.402	10.25
689.157	10.25
689.912	9.25
690.668	8.25
691.423	8.25
692.178	7.25
692.933	7.25
693.688	9.25
694.443	9.25
695.198	7.25
695.953	7.25
696.708	8.25
697.462	10.25
698.217	8.25
698.972	7.25
699.726	8.25
700.48	7.25
701.235	11.25
701.989	7.25
702.743	9.25
703.497	9.25
704.251	8.25
705.005	8.25
705.759	8.25
706.513	7.25
707.266	5.25
708.02	11.25
708.774	7.25
709.527	8.25
710.28	8.25
711.034	5.25
711.787	8.25
712.54	6.25
713.293	9.25
714.046	8.25
714.799	5.25
715.552	8.25
716.305	8.25
717.058	7.25
717.81	9.25
718.563	8.25
719.315	6.25
720.068	10.25
720.82	9.25
721.573	5.25
722.325	10.25
723.077	9.25
723.829	9.25
724.581	8.25
725.333	8.25
726.085	9.25
726.836	8.25
727.588	8.25
728.34	9.25
729.091	10.25
729.843	9.25
730.594	8.25
731.346	7.25
732.097	10.25
732.848	9.25
733.599	11.25
734.35	8.25
735.101	10.25
735.852	8.25
736.603	10.25
737.354	9.25
738.104	10.25
738.855	9.25
739.605	9.25
740.356	10.25
741.106	10.25
741.856	11.25
742.607	11.25
743.357	10.25
744.107	10.25
744.857	11.25
745.607	11.25
746.357	12.25
747.106	10.25
747.856	11.25
748.606	12.25
749.355	9.25
750.105	11.25
750.854	12.25
751.603	12.25
752.353	11.25
753.102	10.25
753.851	11.25
754.6	14.25
755.349	14.25
756.098	13.25
756.847	12.25
757.595	12.25
758.344	13.25
759.093	12.25
759.841	11.25
760.589	13.25
761.338	12.25
762.086	12.25
762.834	13.25
763.582	14.25
764.331	14.25
765.079	15.25
765.826	13.25
766.574	14.25
767.322	15.25
768.07	17.25
768.817	13.25
769.565	17.25
770.312	15.25
771.06	13.25
771.807	14.25
772.554	16.25
773.302	16.25
774.049	14.25
774.796	15.25
775.543	15.25
776.29	16.25
777.036	15.25
777.783	17.25
778.53	19.25
779.276	15.25
780.023	17.25
780.769	17.25
781.516	17.25
782.262	14.25
783.008	17.25
783.754	16.25
784.5	15.25
785.246	18.25
785.992	16.25
786.738	15.25
787.484	16.25
788.23	14.25
788.975	19.25
789.721	19.25
790.466	16.25
791.212	13.25
791.957	17.25
792.702	14.25
793.447	14.25
794.193	15.25
794.938	15.25
795.683	15.25
796.427	15.25
797.172	14.25
797.917	11.25
798.662	13.25
799.406	12.25
800.151	13.25
800.895	16.25
801.64	12.25
802.384	12.25
803.128	11.25
803.872	11.25
804.616	13.25
805.36	14.25
806.104	10.25
806.848	13.25
807.592	9.25
808.336	10.25
809.079	9.25
809.823	6.25
810.566	9.25
811.31	10.25
812.053	8.25
812.796	7.25
813.539	10.25
814.283	8.25
815.026	9.25
815.769	10.25
816.511	10.25
817.254	8.25
817.997	7.25
818.74	9.25
819.482	8.25
820.225	5.25
820.967	9.25
821.71	7.25
822.452	8.25
823.194	6.25
823.936	9.25
824.678	7.25
825.42	7.25
826.162	8.25
826.904	7.25
827.646	7.25
828.388	5.25
829.129	8.25
829.871	7.25
830.612	5.25
831.354	6.25
832.095	7.25
832.836	5.25
833.577	6.25
834.319	8.25
835.06	6.25
835.801	4.25
836.542	6.25
837.282	5.25
838.023	8.25
838.764	7.25
839.504	5.25
840.245	5.25
840.985	5.25
841.726	6.25
842.466	6.25
843.206	4.25
843.946	3.25
844.687	6.25
845.427	11.25
846.166	3.25
846.906	4.25
847.646	5.25
848.386	7.25
849.125	5.25
849.865	5.25
850.605	7.25
851.344	3.25
852.083	6.25
852.823	7.25
853.562	3.25
854.301	5.25
855.04	4.25
855.779	7.25
856.518	3.25
857.257	5.25
857.995	3.25
858.734	3.25
859.473	5.25
860.211	4.25
860.95	3.25
861.688	2.25
862.426	4.25
863.165	3.25
863.903	3.25
864.641	2.25
865.379	3.25
866.117	4.25
866.855	3.25
867.593	5.25
868.33	6.25
869.068	4.25
869.806	3.25
870.543	2.25
871.28	3.25
872.018	2.25
872.755	2.25
873.492	4.25
874.229	2.25
874.967	3.25
875.703	1.25
876.44	2.25
877.177	3.25
877.914	1.25
878.651	4.25
879.387	1.25
880.124	2.25
880.86	1.25
881.597	2.25
882.333	2.25
883.069	2.25
883.806	0.25
884.542	3.25
885.278	0.25
886.014	3.25
886.749	1.25
887.485	4.25
888.221	1.25
888.957	2.25
889.692	2.25
890.428	1.25
891.163	3.25
891.899	0.25
892.634	1.25
893.369	1.25
894.104	1.25
894.839	3.25
895.574	1.25
896.309	2.25
897.044	2.25
897.779	2.25
898.514	2.25
899.248	1.25
899.983	1.25
900.717	-0.75
901.452	2.25
902.186	2.25
902.92	2.25
903.654	-0.75
904.389	-0.75
905.123	2.25
905.857	1.25
906.59	0.25
907.324	0.25
908.058	1.25
908.792	1.25
909.525	-0.75
910.259	0.25
910.992	0.25
911.726	-0.75
912.459	2.25
913.192	2.25
913.925	1.25
914.658	0.25
915.391	0.25
916.124	1.25
916.857	0.25
917.59	1.25
918.323	-0.75
919.055	2.25
919.788	-0.75
920.521	0.25
921.253	2.25
921.985	0.25
922.718	2.25
923.45	2.25
924.182	1.25
924.914	-0.75
925.646	1.25
926.378	-0.75
927.11	-0.75
927.841	1.25
928.573	-0.75
929.305	1.25
930.036	-0.75
930.768	-0.75
931.499	2.25
932.23	0.25
932.962	1.25
933.693	1.25
934.424	1.25
935.155	-2.75
935.886	-1.75
936.617	0.25
937.348	-0.75
938.078	2.25
938.809	3.25
939.54	-1.75
940.27	2.25
941.001	0.25
941.731	1.25
942.461	2.25
943.191	0.25
943.922	-0.75
944.652	2.25
945.382	1.25
946.112	0.25
946.841	2.25
947.571	1.25
948.301	2.25
949.031	1.25
949.76	2.25
950.49	1.25
951.219	3.25
951.948	-1.75
952.678	0.25
953.407	-0.75
954.136	1.25
954.865	0.25
955.594	0.25
956.323	-0.75
957.052	2.25
957.78	2.25
958.509	0.25
959.238	1.25
959.966	0.25
960.695	0.25
961.423	0.25
962.151	-0.75
962.88	0.25
963.608	2.25
964.336	1.25
965.064	1.25
965.792	-0.75
966.52	1.25
967.247	1.25
967.975	1.25
968.703	-1.75
969.43	1.25
970.158	1.25
970.885	-0.75
971.613	1.25
972.34	1.25
973.067	1.25
973.794	0.25
974.521	1.25
975.248	2.25
975.975	1.25
976.702	2.25
977.429	1.25
978.156	0.25
978.882	-0.75
979.609	-0.75
980.335	1.25
981.062	0.25
981.788	1.25
982.514	1.25
983.24	-0.75
983.967	3.25
984.693	0.25
985.419	3.25
986.144	-0.75
986.87	-0.75
987.596	1.25
988.322	1.25
989.047	-0.75
989.773	1.25
990.498	2.25
991.224	0.25
991.949	2.25
992.674	2.25
993.399	1.25
994.124	3.25
994.849	-0.75
995.574	0.25
996.299	-0.75
997.024	-0.75
997.749	1.25
998.473	-0.75
999.198	1.25
999.922	-0.75
1000.647	1.25
1001.371	5.25
1002.095	-2.75
1002.82	-1.75
1003.544	0.25
1004.268	7.25
1004.992	7.25
1005.716	7.25
1006.439	2.25
1007.163	7.25
1007.887	5.25
1008.611	1.25
1009.334	-0.75
1010.058	1.25
1010.781	1.25
1011.504	0.25
1012.228	1.25
1012.951	-0.75
1013.674	0.25
1014.397	-0.75
1015.12	0.25
