节点500_705_QEPB04081__692__20-55-47-799.txt的数据

Date: Wed Nov 12 20:55:47 CST 2025
User: PC
Spectrometer: QEPB0408
触发模式: 0
积分时间 (秒): 1.000000E-2
Scans to average: 1
启用暗噪声校正: true
启用非线性校正: false
滑动平均宽度: 0
X轴模式: Wavelengths
Number of Pixels in Spectrum: 1044
>>>>>Begin Spectral Data<<<<<
220.843	5.38
221.644	5.38
222.444	8.38
223.244	7.38
224.045	5.38
224.845	5.38
225.645	6.38
226.445	6.38
227.245	3.38
228.045	6.38
228.845	9.38
229.645	6.38
230.444	9.38
231.244	9.38
232.043	12.38
232.843	8.38
233.642	8.38
234.442	9.38
235.241	8.38
236.04	7.38
236.839	12.38
237.638	11.38
238.437	10.38
239.236	11.38
240.035	13.38
240.833	11.38
241.632	13.38
242.43	9.38
243.229	11.38
244.027	12.38
244.826	11.38
245.624	13.38
246.422	15.38
247.22	15.38
248.018	14.38
248.816	12.38
249.614	15.38
250.412	13.38
251.21	15.38
252.007	15.38
252.805	17.38
253.602	15.38
254.4	15.38
255.197	17.38
255.994	19.38
256.791	18.38
257.589	18.38
258.386	20.38
259.183	18.38
259.979	19.38
260.776	20.38
261.573	21.38
262.37	22.38
263.166	24.38
263.963	24.38
264.759	22.38
265.556	24.38
266.352	24.38
267.148	24.38
267.944	26.38
268.74	25.38
269.536	26.38
270.332	26.38
271.128	25.38
271.924	27.38
272.719	31.38
273.515	25.38
274.311	28.38
275.106	30.38
275.901	31.38
276.697	27.38
277.492	29.38
278.287	30.38
279.082	28.38
279.877	35.38
280.672	28.38
281.467	32.38
282.262	33.38
283.056	30.38
283.851	27.38
284.646	31.38
285.44	31.38
286.234	30.38
287.029	30.38
287.823	30.38
288.617	32.38
289.411	30.38
290.205	27.38
290.999	31.38
291.793	29.38
292.587	28.38
293.381	31.38
294.174	31.38
294.968	29.38
295.761	27.38
296.555	26.38
297.348	27.38
298.141	25.38
298.935	29.38
299.728	23.38
300.521	27.38
301.314	23.38
302.107	24.38
302.899	25.38
303.692	24.38
304.485	23.38
305.277	22.38
306.07	22.38
306.862	21.38
307.655	22.38
308.447	24.38
309.239	20.38
310.031	24.38
310.823	20.38
311.615	19.38
312.407	19.38
313.199	18.38
313.991	16.38
314.783	17.38
315.574	17.38
316.366	15.38
317.157	15.38
317.949	15.38
318.74	13.38
319.531	16.38
320.322	14.38
321.113	14.38
321.904	14.38
322.695	11.38
323.486	14.38
324.277	15.38
325.068	11.38
325.858	14.38
326.649	15.38
327.439	14.38
328.23	12.38
329.02	13.38
329.81	12.38
330.6	14.38
331.391	11.38
332.181	10.38
332.971	11.38
333.76	12.38
334.55	13.38
335.34	10.38
336.13	10.38
336.919	9.38
337.709	13.38
338.498	13.38
339.287	9.38
340.077	11.38
340.866	13.38
341.655	12.38
342.444	10.38
343.233	11.38
344.022	11.38
344.811	11.38
345.6	13.38
346.388	10.38
347.177	11.38
347.965	13.38
348.754	11.38
349.542	12.38
350.33	12.38
351.119	11.38
351.907	11.38
352.695	11.38
353.483	10.38
354.271	7.38
355.059	11.38
355.846	10.38
356.634	7.38
357.422	11.38
358.209	10.38
358.997	11.38
359.784	11.38
360.571	11.38
361.359	8.38
362.146	12.38
362.933	11.38
363.72	7.38
364.507	10.38
365.294	6.38
366.081	7.38
366.867	14.38
367.654	9.38
368.44	10.38
369.227	11.38
370.013	7.38
370.8	9.38
371.586	9.38
372.372	10.38
373.158	9.38
373.944	11.38
374.73	11.38
375.516	11.38
376.302	8.38
377.088	10.38
377.873	10.38
378.659	10.38
379.445	11.38
380.23	10.38
381.015	11.38
381.801	8.38
382.586	10.38
383.371	10.38
384.156	8.38
384.941	10.38
385.726	11.38
386.511	12.38
387.296	13.38
388.08	7.38
388.865	11.38
389.649	11.38
390.434	11.38
391.218	11.38
392.003	11.38
392.787	9.38
393.571	11.38
394.355	11.38
395.139	13.38
395.923	10.38
396.707	12.38
397.491	13.38
398.274	12.38
399.058	11.38
399.842	15.38
400.625	13.38
401.408	16.38
402.192	12.38
402.975	12.38
403.758	13.38
404.541	13.38
405.324	11.38
406.107	13.38
406.89	14.38
407.673	14.38
408.456	13.38
409.238	15.38
410.021	15.38
410.803	14.38
411.586	15.38
412.368	15.38
413.151	17.38
413.933	14.38
414.715	17.38
415.497	19.38
416.279	17.38
417.061	21.38
417.843	17.38
418.624	18.38
419.406	19.38
420.188	19.38
420.969	19.38
421.751	20.38
422.532	19.38
423.313	22.38
424.095	23.38
424.876	25.38
425.657	24.38
426.438	23.38
427.219	25.38
428	29.38
428.78	27.38
429.561	27.38
430.342	30.38
431.122	31.38
431.903	30.38
432.683	33.38
433.464	32.38
434.244	39.38
435.024	39.38
435.804	40.38
436.584	42.38
437.364	47.38
438.144	49.38
438.924	53.38
439.704	56.38
440.483	59.38
441.263	62.38
442.042	65.38
442.822	73.38
443.601	78.38
444.38	82.38
445.16	90.38
445.939	99.38
446.718	107.38
447.497	120.38
448.276	130.38
449.054	141.38
449.833	162.38
450.612	172.38
451.391	189.38
452.169	209.38
452.948	233.38
453.726	266.38
454.504	293.38
455.282	319.38
456.061	362.38
456.839	392.38
457.617	447.38
458.395	489.38
459.172	545.38
459.95	602.38
460.728	677.38
461.506	746.38
462.283	841.38
463.061	928.38
463.838	1023.38
464.615	1147.38
465.393	1261.38
466.17	1395.38
466.947	1545.38
467.724	1714.38
468.501	1885.38
469.278	2069.38
470.055	2275.38
470.831	2525.38
471.608	2763.38
472.385	3030.38
473.161	3278.38
473.938	3619.38
474.714	3942.38
475.49	4286.38
476.266	4724.38
477.043	5107.38
477.819	5573.38
478.595	6026.38
479.371	6576.38
480.146	7124.38
480.922	7727.38
481.698	8387.38
482.473	9063.38
483.249	9763.38
484.024	10580.38
484.8	11423.38
485.575	12262.38
486.35	13285.38
487.126	14281.38
487.901	15368.38
488.676	16496.38
489.451	17708.38
490.225	18985.38
491	20312.38
491.775	21708.38
492.55	23075.38
493.324	24656.38
494.099	26123.38
494.873	27642.38
495.647	29247.38
496.422	30767.38
497.196	32376.38
497.97	33909.38
498.744	35341.38
499.518	36835.38
500.292	38249.38
501.066	39303.38
501.839	40365.38
502.613	41266.38
503.387	42126.38
504.16	42762.38
504.934	43170.38
505.707	43431.38
506.48	43327.38
507.253	43190.38
508.027	42954.38
508.8	42407.38
509.573	41756.38
510.346	41129.38
511.118	40361.38
511.891	39341.38
512.664	38130.38
513.437	36917.38
514.209	35752.38
514.982	34508.38
515.754	33204.38
516.526	32004.38
517.298	30767.38
518.071	29678.38
518.843	28469.38
519.615	27319.38
520.387	26363.38
521.159	25296.38
521.93	24280.38
522.702	23299.38
523.474	22307.38
524.245	21399.38
525.017	20537.38
525.788	19724.38
526.56	18891.38
527.331	18138.38
528.102	17288.38
528.873	16453.38
529.644	15698.38
530.415	14969.38
531.186	14266.38
531.957	13611.38
532.728	12914.38
533.498	12248.38
534.269	11650.38
535.039	11083.38
535.81	10464.38
536.58	9911.38
537.351	9393.38
538.121	8930.38
538.891	8401.38
539.661	8005.38
540.431	7565.38
541.201	7186.38
541.971	6784.38
542.741	6445.38
543.51	6107.38
544.28	5800.38
545.05	5560.38
545.819	5279.38
546.588	5046.38
547.358	4815.38
548.127	4551.38
548.896	4339.38
549.665	4117.38
550.434	3917.38
551.203	3710.38
551.972	3519.38
552.741	3333.38
553.51	3157.38
554.278	2973.38
555.047	2824.38
555.815	2695.38
556.584	2543.38
557.352	2393.38
558.121	2275.38
558.889	2146.38
559.657	2016.38
560.425	1921.38
561.193	1835.38
561.961	1729.38
562.729	1619.38
563.496	1534.38
564.264	1449.38
565.032	1375.38
565.799	1305.38
566.567	1231.38
567.334	1173.38
568.101	1099.38
568.869	1040.38
569.636	968.38
570.403	921.38
571.17	864.38
571.937	829.38
572.704	773.38
573.471	735.38
574.237	684.38
575.004	656.38
575.771	612.38
576.537	583.38
577.303	551.38
578.07	519.38
578.836	498.38
579.602	461.38
580.368	447.38
581.134	420.38
581.9	397.38
582.666	382.38
583.432	360.38
584.198	339.38
584.964	325.38
585.729	313.38
586.495	294.38
587.26	275.38
588.025	257.38
588.791	248.38
589.556	237.38
590.321	228.38
591.086	212.38
591.851	204.38
592.616	198.38
593.381	183.38
594.146	174.38
594.911	170.38
595.675	160.38
596.44	152.38
597.204	142.38
597.969	141.38
598.733	127.38
599.497	130.38
600.261	124.38
601.025	119.38
601.79	109.38
602.553	108.38
603.317	102.38
604.081	93.38
604.845	94.38
605.609	86.38
606.372	87.38
607.136	83.38
607.899	77.38
608.662	76.38
609.426	71.38
610.189	74.38
610.952	67.38
611.715	67.38
612.478	64.38
613.241	64.38
614.004	62.38
614.767	54.38
615.529	55.38
616.292	57.38
617.055	53.38
617.817	50.38
618.579	47.38
619.342	48.38
620.104	43.38
620.866	40.38
621.628	40.38
622.39	45.38
623.152	40.38
623.914	38.38
624.676	37.38
625.438	36.38
626.199	34.38
626.961	32.38
627.722	33.38
628.484	30.38
629.245	30.38
630.006	30.38
630.768	33.38
631.529	30.38
632.29	26.38
633.051	28.38
633.812	27.38
634.573	26.38
635.333	25.38
636.094	22.38
636.855	22.38
637.615	21.38
638.376	21.38
639.136	19.38
639.896	21.38
640.657	19.38
641.417	19.38
642.177	20.38
642.937	19.38
643.697	19.38
644.457	18.38
645.216	20.38
645.976	17.38
646.736	17.38
647.495	18.38
648.255	15.38
649.014	15.38
649.774	17.38
650.533	15.38
651.292	13.38
652.051	15.38
652.81	14.38
653.569	13.38
654.328	15.38
655.087	13.38
655.846	13.38
656.604	13.38
657.363	13.38
658.121	12.38
658.88	11.38
659.638	11.38
660.397	11.38
661.155	11.38
661.913	12.38
662.671	10.38
663.429	10.38
664.187	9.38
664.945	13.38
665.703	11.38
666.46	11.38
667.218	13.38
667.976	10.38
668.733	11.38
669.49	8.38
670.248	9.38
671.005	10.38
671.762	9.38
672.519	9.38
673.276	8.38
674.033	9.38
674.79	8.38
675.547	7.38
676.304	10.38
677.06	10.38
677.817	9.38
678.574	8.38
679.33	9.38
680.086	8.38
680.843	8.38
681.599	11.38
682.355	8.38
683.111	9.38
683.867	10.38
684.623	8.38
685.379	5.38
686.135	7.38
686.89	9.38
687.646	8.38
688.402	9.38
689.157	11.38
689.912	7.38
690.668	9.38
691.423	7.38
692.178	7.38
692.933	9.38
693.688	8.38
694.443	5.38
695.198	7.38
695.953	8.38
696.708	4.38
697.462	8.38
698.217	6.38
698.972	8.38
699.726	6.38
700.48	7.38
701.235	8.38
701.989	9.38
702.743	9.38
703.497	7.38
704.251	6.38
705.005	7.38
705.759	7.38
706.513	9.38
707.266	6.38
708.02	9.38
708.774	9.38
709.527	7.38
710.28	6.38
711.034	6.38
711.787	8.38
712.54	8.38
713.293	7.38
714.046	7.38
714.799	5.38
715.552	6.38
716.305	8.38
717.058	9.38
717.81	5.38
718.563	6.38
719.315	8.38
720.068	10.38
720.82	8.38
721.573	6.38
722.325	9.38
723.077	9.38
723.829	7.38
724.581	7.38
725.333	6.38
726.085	9.38
726.836	8.38
727.588	8.38
728.34	6.38
729.091	7.38
729.843	8.38
730.594	8.38
731.346	8.38
732.097	8.38
732.848	8.38
733.599	6.38
734.35	9.38
735.101	10.38
735.852	8.38
736.603	9.38
737.354	7.38
738.104	9.38
738.855	9.38
739.605	9.38
740.356	9.38
741.106	8.38
741.856	10.38
742.607	9.38
743.357	8.38
744.107	11.38
744.857	9.38
745.607	10.38
746.357	11.38
747.106	10.38
747.856	9.38
748.606	10.38
749.355	12.38
750.105	11.38
750.854	8.38
751.603	9.38
752.353	10.38
753.102	11.38
753.851	9.38
754.6	9.38
755.349	12.38
756.098	10.38
756.847	10.38
757.595	12.38
758.344	14.38
759.093	10.38
759.841	10.38
760.589	11.38
761.338	12.38
762.086	13.38
762.834	10.38
763.582	11.38
764.331	13.38
765.079	11.38
765.826	11.38
766.574	14.38
767.322	13.38
768.07	12.38
768.817	13.38
769.565	13.38
770.312	14.38
771.06	11.38
771.807	11.38
772.554	12.38
773.302	15.38
774.049	15.38
774.796	19.38
775.543	13.38
776.29	15.38
777.036	15.38
777.783	14.38
778.53	14.38
779.276	15.38
780.023	14.38
780.769	11.38
781.516	13.38
782.262	13.38
783.008	15.38
783.754	13.38
784.5	15.38
785.246	13.38
785.992	14.38
786.738	17.38
787.484	13.38
788.23	14.38
788.975	16.38
789.721	12.38
790.466	15.38
791.212	13.38
791.957	13.38
792.702	13.38
793.447	11.38
794.193	13.38
794.938	12.38
795.683	15.38
796.427	11.38
797.172	15.38
797.917	14.38
798.662	13.38
799.406	11.38
800.151	11.38
800.895	11.38
801.64	11.38
802.384	14.38
803.128	12.38
803.872	11.38
804.616	13.38
805.36	11.38
806.104	11.38
806.848	12.38
807.592	10.38
808.336	9.38
809.079	11.38
809.823	10.38
810.566	9.38
811.31	12.38
812.053	9.38
812.796	8.38
813.539	8.38
814.283	8.38
815.026	9.38
815.769	7.38
816.511	7.38
817.254	9.38
817.997	7.38
818.74	10.38
819.482	6.38
820.225	8.38
820.967	7.38
821.71	6.38
822.452	9.38
823.194	7.38
823.936	7.38
824.678	9.38
825.42	6.38
826.162	8.38
826.904	8.38
827.646	10.38
828.388	9.38
829.129	5.38
829.871	6.38
830.612	6.38
831.354	8.38
832.095	5.38
832.836	7.38
833.577	6.38
834.319	7.38
835.06	9.38
835.801	6.38
836.542	8.38
837.282	6.38
838.023	9.38
838.764	5.38
839.504	5.38
840.245	5.38
840.985	6.38
841.726	6.38
842.466	5.38
843.206	7.38
843.946	6.38
844.687	5.38
845.427	6.38
846.166	4.38
846.906	5.38
847.646	6.38
848.386	5.38
849.125	3.38
849.865	6.38
850.605	3.38
851.344	3.38
852.083	3.38
852.823	6.38
853.562	5.38
854.301	5.38
855.04	4.38
855.779	6.38
856.518	3.38
857.257	4.38
857.995	7.38
858.734	5.38
859.473	7.38
860.211	4.38
860.95	3.38
861.688	3.38
862.426	3.38
863.165	3.38
863.903	3.38
864.641	3.38
865.379	5.38
866.117	3.38
866.855	2.38
867.593	0.38
868.33	5.38
869.068	-0.62
869.806	4.38
870.543	3.38
871.28	3.38
872.018	3.38
872.755	-0.62
873.492	1.38
874.229	3.38
874.967	3.38
875.703	1.38
876.44	3.38
877.177	1.38
877.914	0.38
878.651	2.38
879.387	4.38
880.124	3.38
880.86	2.38
881.597	2.38
882.333	1.38
883.069	2.38
883.806	1.38
884.542	0.38
885.278	3.38
886.014	3.38
886.749	-0.62
887.485	3.38
888.221	1.38
888.957	3.38
889.692	3.38
890.428	1.38
891.163	0.38
891.899	3.38
892.634	2.38
893.369	2.38
894.104	2.38
894.839	2.38
895.574	2.38
896.309	0.38
897.044	1.38
897.779	3.38
898.514	2.38
899.248	1.38
899.983	1.38
900.717	1.38
901.452	0.38
902.186	0.38
902.92	0.38
903.654	3.38
904.389	1.38
905.123	0.38
905.857	2.38
906.59	2.38
907.324	1.38
908.058	0.38
908.792	1.38
909.525	-0.62
910.259	1.38
910.992	-0.62
911.726	-0.62
912.459	0.38
913.192	1.38
913.925	3.38
914.658	3.38
915.391	2.38
916.124	0.38
916.857	0.38
917.59	0.38
918.323	1.38
919.055	1.38
919.788	1.38
920.521	3.38
921.253	1.38
921.985	1.38
922.718	-0.62
923.45	1.38
924.182	2.38
924.914	1.38
925.646	2.38
926.378	-0.62
927.11	2.38
927.841	2.38
928.573	1.38
929.305	-0.62
930.036	1.38
930.768	-0.62
931.499	1.38
932.23	-1.62
932.962	1.38
933.693	2.38
934.424	0.38
935.155	1.38
935.886	-0.62
936.617	1.38
937.348	0.38
938.078	-0.62
938.809	0.38
939.54	1.38
940.27	0.38
941.001	-0.62
941.731	1.38
942.461	-0.62
943.191	1.38
943.922	-0.62
944.652	2.38
945.382	3.38
946.112	-0.62
946.841	2.38
947.571	1.38
948.301	1.38
949.031	-0.62
949.76	-0.62
950.49	2.38
951.219	1.38
951.948	0.38
952.678	0.38
953.407	-0.62
954.136	1.38
954.865	1.38
955.594	0.38
956.323	0.38
957.052	2.38
957.78	0.38
958.509	2.38
959.238	2.38
959.966	-0.62
960.695	1.38
961.423	-1.62
962.151	1.38
962.88	1.38
963.608	1.38
964.336	-1.62
965.064	0.38
965.792	1.38
966.52	2.38
967.247	1.38
967.975	0.38
968.703	0.38
969.43	1.38
970.158	-1.62
970.885	1.38
971.613	1.38
972.34	1.38
973.067	-0.62
973.794	-0.62
974.521	2.38
975.248	2.38
975.975	2.38
976.702	-0.62
977.429	0.38
978.156	1.38
978.882	0.38
979.609	0.38
980.335	0.38
981.062	-2.62
981.788	1.38
982.514	1.38
983.24	1.38
983.967	1.38
984.693	0.38
985.419	2.38
986.144	1.38
986.87	0.38
987.596	0.38
988.322	-0.62
989.047	0.38
989.773	1.38
990.498	0.38
991.224	1.38
991.949	1.38
992.674	1.38
993.399	1.38
994.124	-1.62
994.849	0.38
995.574	-0.62
996.299	-1.62
997.024	-0.62
997.749	0.38
998.473	1.38
999.198	1.38
999.922	1.38
1000.647	2.38
1001.371	3.38
1002.095	-0.62
1002.82	-2.62
1003.544	-0.62
1004.268	6.38
1004.992	7.38
1005.716	3.38
1006.439	6.38
1007.163	4.38
1007.887	4.38
1008.611	-0.62
1009.334	3.38
1010.058	0.38
1010.781	0.38
1011.504	-0.62
1012.228	-0.62
1012.951	0.38
1013.674	-1.62
1014.397	0.38
1015.12	1.38
