节点500_705_QEPB04081__276__20-49-54-412.txt的数据

Date: Wed Nov 12 20:49:54 CST 2025
User: PC
Spectrometer: QEPB0408
触发模式: 0
积分时间 (秒): 1.000000E-2
Scans to average: 1
启用暗噪声校正: true
启用非线性校正: false
滑动平均宽度: 0
X轴模式: Wavelengths
Number of Pixels in Spectrum: 1044
>>>>>Begin Spectral Data<<<<<
220.843	6.25
221.644	4.25
222.444	7.25
223.244	7.25
224.045	7.25
224.845	7.25
225.645	7.25
226.445	10.25
227.245	8.25
228.045	9.25
228.845	7.25
229.645	6.25
230.444	9.25
231.244	7.25
232.043	7.25
232.843	10.25
233.642	8.25
234.442	10.25
235.241	11.25
236.04	10.25
236.839	12.25
237.638	9.25
238.437	11.25
239.236	10.25
240.035	12.25
240.833	11.25
241.632	14.25
242.43	12.25
243.229	10.25
244.027	15.25
244.826	12.25
245.624	13.25
246.422	15.25
247.22	12.25
248.018	15.25
248.816	19.25
249.614	16.25
250.412	16.25
251.21	18.25
252.007	17.25
252.805	15.25
253.602	19.25
254.4	17.25
255.197	18.25
255.994	20.25
256.791	21.25
257.589	22.25
258.386	18.25
259.183	25.25
259.979	21.25
260.776	26.25
261.573	25.25
262.37	24.25
263.166	26.25
263.963	24.25
264.759	31.25
265.556	26.25
266.352	28.25
267.148	30.25
267.944	28.25
268.74	30.25
269.536	29.25
270.332	31.25
271.128	33.25
271.924	30.25
272.719	34.25
273.515	31.25
274.311	35.25
275.106	35.25
275.901	35.25
276.697	33.25
277.492	33.25
278.287	35.25
279.082	33.25
279.877	38.25
280.672	35.25
281.467	36.25
282.262	37.25
283.056	34.25
283.851	30.25
284.646	37.25
285.44	37.25
286.234	34.25
287.029	33.25
287.823	35.25
288.617	34.25
289.411	34.25
290.205	28.25
290.999	31.25
291.793	33.25
292.587	30.25
293.381	30.25
294.174	31.25
294.968	30.25
295.761	33.25
296.555	24.25
297.348	26.25
298.141	24.25
298.935	29.25
299.728	26.25
300.521	23.25
301.314	25.25
302.107	25.25
302.899	26.25
303.692	23.25
304.485	25.25
305.277	23.25
306.07	22.25
306.862	23.25
307.655	22.25
308.447	23.25
309.239	21.25
310.031	21.25
310.823	18.25
311.615	18.25
312.407	17.25
313.199	17.25
313.991	16.25
314.783	19.25
315.574	18.25
316.366	19.25
317.157	15.25
317.949	15.25
318.74	17.25
319.531	16.25
320.322	17.25
321.113	12.25
321.904	13.25
322.695	14.25
323.486	12.25
324.277	14.25
325.068	11.25
325.858	14.25
326.649	13.25
327.439	14.25
328.23	13.25
329.02	12.25
329.81	12.25
330.6	12.25
331.391	11.25
332.181	12.25
332.971	12.25
333.76	15.25
334.55	11.25
335.34	11.25
336.13	10.25
336.919	13.25
337.709	9.25
338.498	12.25
339.287	13.25
340.077	14.25
340.866	11.25
341.655	9.25
342.444	11.25
343.233	12.25
344.022	13.25
344.811	14.25
345.6	11.25
346.388	12.25
347.177	12.25
347.965	12.25
348.754	14.25
349.542	10.25
350.33	13.25
351.119	12.25
351.907	9.25
352.695	11.25
353.483	9.25
354.271	10.25
355.059	11.25
355.846	13.25
356.634	10.25
357.422	9.25
358.209	11.25
358.997	9.25
359.784	10.25
360.571	11.25
361.359	11.25
362.146	10.25
362.933	11.25
363.72	10.25
364.507	11.25
365.294	9.25
366.081	11.25
366.867	11.25
367.654	11.25
368.44	10.25
369.227	11.25
370.013	11.25
370.8	11.25
371.586	7.25
372.372	9.25
373.158	12.25
373.944	10.25
374.73	14.25
375.516	11.25
376.302	12.25
377.088	8.25
377.873	10.25
378.659	10.25
379.445	8.25
380.23	10.25
381.015	9.25
381.801	9.25
382.586	12.25
383.371	11.25
384.156	14.25
384.941	10.25
385.726	11.25
386.511	13.25
387.296	10.25
388.08	11.25
388.865	10.25
389.649	10.25
390.434	11.25
391.218	13.25
392.003	11.25
392.787	14.25
393.571	12.25
394.355	12.25
395.139	15.25
395.923	11.25
396.707	11.25
397.491	12.25
398.274	14.25
399.058	13.25
399.842	15.25
400.625	14.25
401.408	10.25
402.192	10.25
402.975	12.25
403.758	13.25
404.541	13.25
405.324	17.25
406.107	14.25
406.89	14.25
407.673	16.25
408.456	15.25
409.238	15.25
410.021	16.25
410.803	17.25
411.586	19.25
412.368	17.25
413.151	17.25
413.933	18.25
414.715	19.25
415.497	21.25
416.279	19.25
417.061	19.25
417.843	21.25
418.624	19.25
419.406	23.25
420.188	22.25
420.969	19.25
421.751	22.25
422.532	21.25
423.313	27.25
424.095	24.25
424.876	26.25
425.657	27.25
426.438	27.25
427.219	26.25
428	25.25
428.78	27.25
429.561	29.25
430.342	32.25
431.122	29.25
431.903	34.25
432.683	31.25
433.464	35.25
434.244	34.25
435.024	40.25
435.804	41.25
436.584	42.25
437.364	45.25
438.144	52.25
438.924	52.25
439.704	50.25
440.483	53.25
441.263	60.25
442.042	62.25
442.822	69.25
443.601	72.25
444.38	78.25
445.16	86.25
445.939	92.25
446.718	101.25
447.497	107.25
448.276	121.25
449.054	129.25
449.833	143.25
450.612	162.25
451.391	174.25
452.169	201.25
452.948	212.25
453.726	242.25
454.504	262.25
455.282	295.25
456.061	322.25
456.839	369.25
457.617	404.25
458.395	447.25
459.172	507.25
459.95	562.25
460.728	625.25
461.506	700.25
462.283	783.25
463.061	871.25
463.838	955.25
464.615	1078.25
465.393	1195.25
466.17	1355.25
466.947	1491.25
467.724	1665.25
468.501	1822.25
469.278	2031.25
470.055	2253.25
470.831	2479.25
471.608	2751.25
472.385	3029.25
473.161	3344.25
473.938	3689.25
474.714	4041.25
475.49	4436.25
476.266	4873.25
477.043	5326.25
477.819	5864.25
478.595	6425.25
479.371	7002.25
480.146	7629.25
480.922	8345.25
481.698	9114.25
482.473	9950.25
483.249	10810.25
484.024	11693.25
484.8	12736.25
485.575	13832.25
486.35	14987.25
487.126	16220.25
487.901	17560.25
488.676	19043.25
489.451	20499.25
490.225	22104.25
491	23662.25
491.775	25328.25
492.55	27099.25
493.324	28863.25
494.099	30654.25
494.873	32443.25
495.647	34281.25
496.422	36137.25
497.196	37949.25
497.97	39587.25
498.744	41092.25
499.518	42603.25
500.292	44041.25
501.066	45022.25
501.839	45982.25
502.613	46696.25
503.387	47245.25
504.16	47608.25
504.934	47697.25
505.707	47620.25
506.48	47152.25
507.253	46589.25
508.027	45864.25
508.8	44800.25
509.573	43704.25
510.346	42679.25
511.118	41507.25
511.891	40276.25
512.664	38713.25
513.437	37226.25
514.209	35786.25
514.982	34358.25
515.754	33005.25
516.526	31663.25
517.298	30427.25
518.071	29143.25
518.843	28000.25
519.615	26877.25
520.387	25825.25
521.159	24826.25
521.93	23718.25
522.702	22738.25
523.474	21820.25
524.245	20848.25
525.017	19951.25
525.788	19087.25
526.56	18229.25
527.331	17516.25
528.102	16501.25
528.873	15684.25
529.644	14979.25
530.415	14253.25
531.186	13582.25
531.957	12879.25
532.728	12183.25
533.498	11550.25
534.269	10929.25
535.039	10306.25
535.81	9816.25
536.58	9242.25
537.351	8748.25
538.121	8299.25
538.891	7861.25
539.661	7469.25
540.431	7044.25
541.201	6653.25
541.971	6324.25
542.741	6021.25
543.51	5715.25
544.28	5413.25
545.05	5168.25
545.819	4921.25
546.588	4653.25
547.358	4476.25
548.127	4231.25
548.896	4015.25
549.665	3811.25
550.434	3616.25
551.203	3409.25
551.972	3252.25
552.741	3077.25
553.51	2897.25
554.278	2730.25
555.047	2572.25
555.815	2447.25
556.584	2302.25
557.352	2184.25
558.121	2045.25
558.889	1938.25
559.657	1842.25
560.425	1753.25
561.193	1651.25
561.961	1570.25
562.729	1475.25
563.496	1394.25
564.264	1307.25
565.032	1245.25
565.799	1169.25
566.567	1122.25
567.334	1065.25
568.101	983.25
568.869	945.25
569.636	898.25
570.403	847.25
571.17	795.25
571.937	736.25
572.704	709.25
573.471	672.25
574.237	628.25
575.004	592.25
575.771	557.25
576.537	527.25
577.303	498.25
578.07	464.25
578.836	444.25
579.602	416.25
580.368	409.25
581.134	378.25
581.9	368.25
582.666	339.25
583.432	326.25
584.198	309.25
584.964	300.25
585.729	279.25
586.495	268.25
587.26	250.25
588.025	236.25
588.791	232.25
589.556	210.25
590.321	203.25
591.086	197.25
591.851	185.25
592.616	176.25
593.381	163.25
594.146	154.25
594.911	159.25
595.675	139.25
596.44	142.25
597.204	133.25
597.969	130.25
598.733	121.25
599.497	115.25
600.261	107.25
601.025	107.25
601.79	106.25
602.553	98.25
603.317	90.25
604.081	94.25
604.845	88.25
605.609	85.25
606.372	81.25
607.136	74.25
607.899	71.25
608.662	69.25
609.426	68.25
610.189	65.25
610.952	63.25
611.715	64.25
612.478	59.25
613.241	56.25
614.004	58.25
614.767	55.25
615.529	51.25
616.292	53.25
617.055	47.25
617.817	47.25
618.579	44.25
619.342	44.25
620.104	41.25
620.866	42.25
621.628	40.25
622.39	38.25
623.152	40.25
623.914	37.25
624.676	34.25
625.438	34.25
626.199	33.25
626.961	32.25
627.722	31.25
628.484	27.25
629.245	28.25
630.006	30.25
630.768	27.25
631.529	25.25
632.29	26.25
633.051	25.25
633.812	24.25
634.573	25.25
635.333	21.25
636.094	23.25
636.855	25.25
637.615	21.25
638.376	21.25
639.136	20.25
639.896	19.25
640.657	19.25
641.417	23.25
642.177	15.25
642.937	15.25
643.697	17.25
644.457	17.25
645.216	15.25
645.976	17.25
646.736	18.25
647.495	18.25
648.255	14.25
649.014	18.25
649.774	14.25
650.533	17.25
651.292	14.25
652.051	14.25
652.81	13.25
653.569	13.25
654.328	13.25
655.087	11.25
655.846	14.25
656.604	11.25
657.363	13.25
658.121	13.25
658.88	12.25
659.638	11.25
660.397	9.25
661.155	11.25
661.913	13.25
662.671	10.25
663.429	11.25
664.187	12.25
664.945	7.25
665.703	11.25
666.46	13.25
667.218	11.25
667.976	10.25
668.733	10.25
669.49	10.25
670.248	9.25
671.005	8.25
671.762	6.25
672.519	10.25
673.276	8.25
674.033	9.25
674.79	8.25
675.547	10.25
676.304	9.25
677.06	8.25
677.817	11.25
678.574	8.25
679.33	8.25
680.086	8.25
680.843	5.25
681.599	11.25
682.355	11.25
683.111	10.25
683.867	8.25
684.623	9.25
685.379	10.25
686.135	9.25
686.89	7.25
687.646	9.25
688.402	9.25
689.157	8.25
689.912	7.25
690.668	9.25
691.423	7.25
692.178	9.25
692.933	9.25
693.688	8.25
694.443	5.25
695.198	7.25
695.953	8.25
696.708	9.25
697.462	7.25
698.217	10.25
698.972	5.25
699.726	9.25
700.48	9.25
701.235	8.25
701.989	9.25
702.743	9.25
703.497	4.25
704.251	7.25
705.005	9.25
705.759	8.25
706.513	6.25
707.266	8.25
708.02	9.25
708.774	10.25
709.527	8.25
710.28	8.25
711.034	9.25
711.787	6.25
712.54	7.25
713.293	9.25
714.046	9.25
714.799	7.25
715.552	9.25
716.305	10.25
717.058	9.25
717.81	8.25
718.563	9.25
719.315	6.25
720.068	10.25
720.82	6.25
721.573	10.25
722.325	6.25
723.077	8.25
723.829	5.25
724.581	9.25
725.333	10.25
726.085	9.25
726.836	9.25
727.588	7.25
728.34	10.25
729.091	7.25
729.843	8.25
730.594	10.25
731.346	8.25
732.097	12.25
732.848	8.25
733.599	11.25
734.35	10.25
735.101	10.25
735.852	10.25
736.603	9.25
737.354	9.25
738.104	9.25
738.855	11.25
739.605	8.25
740.356	9.25
741.106	12.25
741.856	9.25
742.607	10.25
743.357	11.25
744.107	10.25
744.857	10.25
745.607	10.25
746.357	9.25
747.106	8.25
747.856	11.25
748.606	9.25
749.355	12.25
750.105	8.25
750.854	11.25
751.603	12.25
752.353	11.25
753.102	11.25
753.851	13.25
754.6	11.25
755.349	11.25
756.098	12.25
756.847	11.25
757.595	13.25
758.344	11.25
759.093	12.25
759.841	13.25
760.589	15.25
761.338	14.25
762.086	13.25
762.834	14.25
763.582	14.25
764.331	13.25
765.079	14.25
765.826	13.25
766.574	15.25
767.322	15.25
768.07	15.25
768.817	14.25
769.565	16.25
770.312	13.25
771.06	16.25
771.807	13.25
772.554	15.25
773.302	14.25
774.049	12.25
774.796	17.25
775.543	15.25
776.29	17.25
777.036	15.25
777.783	15.25
778.53	17.25
779.276	13.25
780.023	18.25
780.769	15.25
781.516	18.25
782.262	14.25
783.008	16.25
783.754	15.25
784.5	17.25
785.246	15.25
785.992	13.25
786.738	16.25
787.484	16.25
788.23	16.25
788.975	17.25
789.721	14.25
790.466	13.25
791.212	18.25
791.957	14.25
792.702	18.25
793.447	13.25
794.193	15.25
794.938	17.25
795.683	14.25
796.427	17.25
797.172	11.25
797.917	13.25
798.662	13.25
799.406	11.25
800.151	12.25
800.895	14.25
801.64	11.25
802.384	13.25
803.128	14.25
803.872	12.25
804.616	13.25
805.36	11.25
806.104	9.25
806.848	11.25
807.592	9.25
808.336	11.25
809.079	10.25
809.823	11.25
810.566	8.25
811.31	11.25
812.053	12.25
812.796	8.25
813.539	8.25
814.283	10.25
815.026	12.25
815.769	8.25
816.511	7.25
817.254	10.25
817.997	8.25
818.74	6.25
819.482	6.25
820.225	10.25
820.967	8.25
821.71	6.25
822.452	7.25
823.194	9.25
823.936	9.25
824.678	7.25
825.42	8.25
826.162	5.25
826.904	7.25
827.646	9.25
828.388	7.25
829.129	9.25
829.871	8.25
830.612	3.25
831.354	8.25
832.095	7.25
832.836	7.25
833.577	5.25
834.319	6.25
835.06	6.25
835.801	5.25
836.542	5.25
837.282	7.25
838.023	7.25
838.764	6.25
839.504	6.25
840.245	8.25
840.985	5.25
841.726	6.25
842.466	4.25
843.206	5.25
843.946	6.25
844.687	5.25
845.427	6.25
846.166	6.25
846.906	6.25
847.646	7.25
848.386	8.25
849.125	4.25
849.865	4.25
850.605	6.25
851.344	1.25
852.083	3.25
852.823	5.25
853.562	6.25
854.301	4.25
855.04	4.25
855.779	3.25
856.518	3.25
857.257	4.25
857.995	2.25
858.734	5.25
859.473	5.25
860.211	4.25
860.95	3.25
861.688	3.25
862.426	3.25
863.165	0.25
863.903	4.25
864.641	3.25
865.379	3.25
866.117	3.25
866.855	5.25
867.593	1.25
868.33	3.25
869.068	3.25
869.806	3.25
870.543	3.25
871.28	3.25
872.018	3.25
872.755	3.25
873.492	4.25
874.229	4.25
874.967	2.25
875.703	1.25
876.44	2.25
877.177	2.25
877.914	3.25
878.651	1.25
879.387	1.25
880.124	3.25
880.86	2.25
881.597	2.25
882.333	2.25
883.069	2.25
883.806	1.25
884.542	2.25
885.278	3.25
886.014	1.25
886.749	1.25
887.485	3.25
888.221	3.25
888.957	1.25
889.692	1.25
890.428	-0.75
891.163	2.25
891.899	1.25
892.634	3.25
893.369	3.25
894.104	2.25
894.839	2.25
895.574	1.25
896.309	2.25
897.044	1.25
897.779	1.25
898.514	2.25
899.248	0.25
899.983	1.25
900.717	2.25
901.452	2.25
902.186	3.25
902.92	1.25
903.654	-0.75
904.389	1.25
905.123	2.25
905.857	0.25
906.59	0.25
907.324	2.25
908.058	0.25
908.792	0.25
909.525	1.25
910.259	1.25
910.992	0.25
911.726	2.25
912.459	1.25
913.192	0.25
913.925	0.25
914.658	2.25
915.391	1.25
916.124	1.25
916.857	1.25
917.59	1.25
918.323	2.25
919.055	2.25
919.788	-0.75
920.521	1.25
921.253	1.25
921.985	1.25
922.718	1.25
923.45	2.25
924.182	-0.75
924.914	2.25
925.646	0.25
926.378	2.25
927.11	2.25
927.841	0.25
928.573	0.25
929.305	1.25
930.036	0.25
930.768	0.25
931.499	1.25
932.23	-0.75
932.962	-1.75
933.693	2.25
934.424	-0.75
935.155	2.25
935.886	-0.75
936.617	-1.75
937.348	0.25
938.078	1.25
938.809	0.25
939.54	2.25
940.27	0.25
941.001	0.25
941.731	-1.75
942.461	3.25
943.191	-0.75
943.922	0.25
944.652	1.25
945.382	0.25
946.112	1.25
946.841	1.25
947.571	2.25
948.301	1.25
949.031	-0.75
949.76	1.25
950.49	-0.75
951.219	2.25
951.948	0.25
952.678	2.25
953.407	1.25
954.136	1.25
954.865	1.25
955.594	0.25
956.323	0.25
957.052	-1.75
957.78	-0.75
958.509	-0.75
959.238	2.25
959.966	1.25
960.695	-0.75
961.423	2.25
962.151	1.25
962.88	1.25
963.608	2.25
964.336	-1.75
965.064	-1.75
965.792	1.25
966.52	0.25
967.247	0.25
967.975	-0.75
968.703	1.25
969.43	-1.75
970.158	1.25
970.885	1.25
971.613	-1.75
972.34	-1.75
973.067	-0.75
973.794	1.25
974.521	0.25
975.248	-0.75
975.975	-0.75
976.702	-0.75
977.429	1.25
978.156	-0.75
978.882	2.25
979.609	2.25
980.335	1.25
981.062	0.25
981.788	0.25
982.514	0.25
983.24	0.25
983.967	0.25
984.693	1.25
985.419	1.25
986.144	0.25
986.87	-0.75
987.596	0.25
988.322	-0.75
989.047	1.25
989.773	1.25
990.498	1.25
991.224	3.25
991.949	1.25
992.674	0.25
993.399	4.25
994.124	-0.75
994.849	-0.75
995.574	-0.75
996.299	0.25
997.024	-0.75
997.749	-0.75
998.473	2.25
999.198	0.25
999.922	2.25
1000.647	2.25
1001.371	3.25
1002.095	-1.75
1002.82	-0.75
1003.544	-1.75
1004.268	4.25
1004.992	6.25
1005.716	3.25
1006.439	4.25
1007.163	4.25
1007.887	4.25
1008.611	0.25
1009.334	1.25
1010.058	2.25
1010.781	-0.75
1011.504	1.25
1012.228	1.25
1012.951	2.25
1013.674	-0.75
1014.397	0.25
1015.12	-0.75
