节点500_705_QEPB04081__502__20-53-00-776.txt的数据

Date: Wed Nov 12 20:53:00 CST 2025
User: PC
Spectrometer: QEPB0408
触发模式: 0
积分时间 (秒): 1.000000E-2
Scans to average: 1
启用暗噪声校正: true
启用非线性校正: false
滑动平均宽度: 0
X轴模式: Wavelengths
Number of Pixels in Spectrum: 1044
>>>>>Begin Spectral Data<<<<<
220.843	5.88
221.644	3.88
222.444	2.88
223.244	5.88
224.045	6.88
224.845	7.88
225.645	3.88
226.445	4.88
227.245	6.88
228.045	7.88
228.845	6.88
229.645	5.88
230.444	7.88
231.244	8.88
232.043	9.88
232.843	8.88
233.642	9.88
234.442	9.88
235.241	12.88
236.04	9.88
236.839	9.88
237.638	7.88
238.437	9.88
239.236	10.88
240.035	11.88
240.833	8.88
241.632	10.88
242.43	12.88
243.229	12.88
244.027	15.88
244.826	12.88
245.624	12.88
246.422	13.88
247.22	13.88
248.018	15.88
248.816	13.88
249.614	12.88
250.412	15.88
251.21	17.88
252.007	16.88
252.805	14.88
253.602	16.88
254.4	18.88
255.197	13.88
255.994	19.88
256.791	17.88
257.589	19.88
258.386	19.88
259.183	17.88
259.979	18.88
260.776	18.88
261.573	23.88
262.37	20.88
263.166	24.88
263.963	21.88
264.759	22.88
265.556	24.88
266.352	24.88
267.148	25.88
267.944	26.88
268.74	25.88
269.536	28.88
270.332	29.88
271.128	28.88
271.924	28.88
272.719	28.88
273.515	29.88
274.311	26.88
275.106	27.88
275.901	31.88
276.697	34.88
277.492	31.88
278.287	28.88
279.082	32.88
279.877	30.88
280.672	31.88
281.467	31.88
282.262	32.88
283.056	27.88
283.851	30.88
284.646	32.88
285.44	31.88
286.234	34.88
287.029	32.88
287.823	30.88
288.617	32.88
289.411	30.88
290.205	29.88
290.999	30.88
291.793	28.88
292.587	26.88
293.381	33.88
294.174	29.88
294.968	28.88
295.761	24.88
296.555	23.88
297.348	25.88
298.141	25.88
298.935	28.88
299.728	26.88
300.521	24.88
301.314	22.88
302.107	25.88
302.899	25.88
303.692	21.88
304.485	22.88
305.277	23.88
306.07	22.88
306.862	21.88
307.655	22.88
308.447	22.88
309.239	18.88
310.031	19.88
310.823	18.88
311.615	18.88
312.407	18.88
313.199	15.88
313.991	14.88
314.783	15.88
315.574	13.88
316.366	16.88
317.157	14.88
317.949	10.88
318.74	14.88
319.531	14.88
320.322	15.88
321.113	15.88
321.904	12.88
322.695	12.88
323.486	12.88
324.277	12.88
325.068	9.88
325.858	11.88
326.649	11.88
327.439	13.88
328.23	12.88
329.02	9.88
329.81	11.88
330.6	10.88
331.391	13.88
332.181	11.88
332.971	11.88
333.76	10.88
334.55	7.88
335.34	9.88
336.13	11.88
336.919	10.88
337.709	14.88
338.498	10.88
339.287	11.88
340.077	10.88
340.866	10.88
341.655	10.88
342.444	12.88
343.233	12.88
344.022	8.88
344.811	10.88
345.6	12.88
346.388	8.88
347.177	12.88
347.965	9.88
348.754	11.88
349.542	11.88
350.33	11.88
351.119	10.88
351.907	10.88
352.695	8.88
353.483	10.88
354.271	10.88
355.059	8.88
355.846	10.88
356.634	9.88
357.422	8.88
358.209	10.88
358.997	10.88
359.784	9.88
360.571	7.88
361.359	10.88
362.146	9.88
362.933	9.88
363.72	8.88
364.507	7.88
365.294	10.88
366.081	8.88
366.867	6.88
367.654	10.88
368.44	8.88
369.227	9.88
370.013	7.88
370.8	7.88
371.586	6.88
372.372	11.88
373.158	9.88
373.944	10.88
374.73	10.88
375.516	7.88
376.302	8.88
377.088	11.88
377.873	7.88
378.659	10.88
379.445	9.88
380.23	9.88
381.015	8.88
381.801	8.88
382.586	10.88
383.371	10.88
384.156	10.88
384.941	11.88
385.726	8.88
386.511	9.88
387.296	8.88
388.08	12.88
388.865	12.88
389.649	12.88
390.434	12.88
391.218	10.88
392.003	12.88
392.787	10.88
393.571	11.88
394.355	11.88
395.139	11.88
395.923	12.88
396.707	12.88
397.491	11.88
398.274	13.88
399.058	11.88
399.842	14.88
400.625	12.88
401.408	12.88
402.192	11.88
402.975	14.88
403.758	13.88
404.541	12.88
405.324	16.88
406.107	17.88
406.89	15.88
407.673	15.88
408.456	14.88
409.238	15.88
410.021	14.88
410.803	17.88
411.586	15.88
412.368	15.88
413.151	14.88
413.933	15.88
414.715	16.88
415.497	15.88
416.279	18.88
417.061	15.88
417.843	20.88
418.624	18.88
419.406	17.88
420.188	17.88
420.969	19.88
421.751	21.88
422.532	21.88
423.313	20.88
424.095	23.88
424.876	25.88
425.657	24.88
426.438	26.88
427.219	25.88
428	25.88
428.78	28.88
429.561	29.88
430.342	29.88
431.122	32.88
431.903	33.88
432.683	34.88
433.464	35.88
434.244	37.88
435.024	37.88
435.804	40.88
436.584	43.88
437.364	42.88
438.144	44.88
438.924	50.88
439.704	52.88
440.483	58.88
441.263	59.88
442.042	66.88
442.822	71.88
443.601	74.88
444.38	82.88
445.16	90.88
445.939	97.88
446.718	108.88
447.497	118.88
448.276	123.88
449.054	141.88
449.833	151.88
450.612	166.88
451.391	191.88
452.169	205.88
452.948	229.88
453.726	253.88
454.504	279.88
455.282	310.88
456.061	342.88
456.839	380.88
457.617	435.88
458.395	469.88
459.172	529.88
459.95	595.88
460.728	655.88
461.506	734.88
462.283	817.88
463.061	909.88
463.838	1019.88
464.615	1112.88
465.393	1241.88
466.17	1382.88
466.947	1522.88
467.724	1689.88
468.501	1864.88
469.278	2067.88
470.055	2273.88
470.831	2496.88
471.608	2740.88
472.385	3033.88
473.161	3316.88
473.938	3640.88
474.714	4008.88
475.49	4366.88
476.266	4764.88
477.043	5186.88
477.819	5646.88
478.595	6172.88
479.371	6719.88
480.146	7296.88
480.922	7958.88
481.698	8597.88
482.473	9370.88
483.249	10139.88
484.024	10958.88
484.8	11810.88
485.575	12820.88
486.35	13878.88
487.126	14954.88
487.901	16111.88
488.676	17358.88
489.451	18652.88
490.225	19970.88
491	21429.88
491.775	22908.88
492.55	24462.88
493.324	26024.88
494.099	27667.88
494.873	29236.88
495.647	30974.88
496.422	32648.88
497.196	34311.88
497.97	35889.88
498.744	37312.88
499.518	38921.88
500.292	40325.88
501.066	41353.88
501.839	42309.88
502.613	43143.88
503.387	43905.88
504.16	44455.88
504.934	44794.88
505.707	44886.88
506.48	44763.88
507.253	44413.88
508.027	44072.88
508.8	43377.88
509.573	42580.88
510.346	41726.88
511.118	40819.88
511.891	39745.88
512.664	38424.88
513.437	37074.88
514.209	35824.88
514.982	34538.88
515.754	33211.88
516.526	31921.88
517.298	30640.88
518.071	29522.88
518.843	28325.88
519.615	27127.88
520.387	26150.88
521.159	25093.88
521.93	24001.88
522.702	23077.88
523.474	22088.88
524.245	21145.88
525.017	20351.88
525.788	19474.88
526.56	18661.88
527.331	17889.88
528.102	16975.88
528.873	16160.88
529.644	15496.88
530.415	14748.88
531.186	14049.88
531.957	13333.88
532.728	12673.88
533.498	12009.88
534.269	11391.88
535.039	10789.88
535.81	10256.88
536.58	9668.88
537.351	9156.88
538.121	8701.88
538.891	8236.88
539.661	7763.88
540.431	7357.88
541.201	6978.88
541.971	6594.88
542.741	6245.88
543.51	5954.88
544.28	5656.88
545.05	5401.88
545.819	5148.88
546.588	4925.88
547.358	4661.88
548.127	4430.88
548.896	4222.88
549.665	4018.88
550.434	3796.88
551.203	3602.88
551.972	3416.88
552.741	3234.88
553.51	3062.88
554.278	2908.88
555.047	2710.88
555.815	2589.88
556.584	2450.88
557.352	2306.88
558.121	2185.88
558.889	2070.88
559.657	1959.88
560.425	1848.88
561.193	1756.88
561.961	1658.88
562.729	1567.88
563.496	1481.88
564.264	1400.88
565.032	1336.88
565.799	1268.88
566.567	1194.88
567.334	1127.88
568.101	1049.88
568.869	994.88
569.636	943.88
570.403	896.88
571.17	843.88
571.937	793.88
572.704	746.88
573.471	710.88
574.237	673.88
575.004	617.88
575.771	594.88
576.537	560.88
577.303	530.88
578.07	508.88
578.836	460.88
579.602	442.88
580.368	428.88
581.134	402.88
581.9	379.88
582.666	358.88
583.432	345.88
584.198	325.88
584.964	318.88
585.729	304.88
586.495	277.88
587.26	266.88
588.025	252.88
588.791	241.88
589.556	220.88
590.321	210.88
591.086	202.88
591.851	191.88
592.616	182.88
593.381	173.88
594.146	170.88
594.911	163.88
595.675	154.88
596.44	145.88
597.204	143.88
597.969	136.88
598.733	130.88
599.497	123.88
600.261	117.88
601.025	113.88
601.79	109.88
602.553	104.88
603.317	94.88
604.081	95.88
604.845	92.88
605.609	87.88
606.372	83.88
607.136	79.88
607.899	79.88
608.662	74.88
609.426	76.88
610.189	68.88
610.952	66.88
611.715	60.88
612.478	62.88
613.241	58.88
614.004	59.88
614.767	54.88
615.529	53.88
616.292	52.88
617.055	46.88
617.817	47.88
618.579	45.88
619.342	43.88
620.104	44.88
620.866	42.88
621.628	42.88
622.39	39.88
623.152	40.88
623.914	37.88
624.676	34.88
625.438	32.88
626.199	32.88
626.961	34.88
627.722	30.88
628.484	31.88
629.245	26.88
630.006	28.88
630.768	26.88
631.529	25.88
632.29	26.88
633.051	25.88
633.812	24.88
634.573	23.88
635.333	20.88
636.094	22.88
636.855	20.88
637.615	22.88
638.376	23.88
639.136	19.88
639.896	20.88
640.657	19.88
641.417	18.88
642.177	17.88
642.937	19.88
643.697	18.88
644.457	14.88
645.216	16.88
645.976	18.88
646.736	17.88
647.495	16.88
648.255	14.88
649.014	14.88
649.774	14.88
650.533	15.88
651.292	13.88
652.051	12.88
652.81	13.88
653.569	12.88
654.328	14.88
655.087	10.88
655.846	12.88
656.604	14.88
657.363	13.88
658.121	12.88
658.88	12.88
659.638	11.88
660.397	9.88
661.155	9.88
661.913	12.88
662.671	11.88
663.429	10.88
664.187	10.88
664.945	11.88
665.703	10.88
666.46	9.88
667.218	10.88
667.976	8.88
668.733	9.88
669.49	10.88
670.248	9.88
671.005	8.88
671.762	8.88
672.519	9.88
673.276	9.88
674.033	8.88
674.79	8.88
675.547	8.88
676.304	6.88
677.06	7.88
677.817	8.88
678.574	7.88
679.33	7.88
680.086	9.88
680.843	9.88
681.599	6.88
682.355	7.88
683.111	9.88
683.867	8.88
684.623	7.88
685.379	8.88
686.135	7.88
686.89	6.88
687.646	7.88
688.402	8.88
689.157	7.88
689.912	8.88
690.668	7.88
691.423	4.88
692.178	7.88
692.933	6.88
693.688	7.88
694.443	7.88
695.198	6.88
695.953	7.88
696.708	4.88
697.462	8.88
698.217	5.88
698.972	7.88
699.726	6.88
700.48	9.88
701.235	8.88
701.989	6.88
702.743	7.88
703.497	7.88
704.251	6.88
705.005	7.88
705.759	5.88
706.513	8.88
707.266	5.88
708.02	7.88
708.774	7.88
709.527	9.88
710.28	8.88
711.034	7.88
711.787	6.88
712.54	7.88
713.293	6.88
714.046	8.88
714.799	6.88
715.552	7.88
716.305	9.88
717.058	7.88
717.81	6.88
718.563	7.88
719.315	8.88
720.068	5.88
720.82	7.88
721.573	8.88
722.325	8.88
723.077	6.88
723.829	7.88
724.581	7.88
725.333	7.88
726.085	6.88
726.836	6.88
727.588	7.88
728.34	8.88
729.091	5.88
729.843	7.88
730.594	5.88
731.346	5.88
732.097	8.88
732.848	8.88
733.599	7.88
734.35	7.88
735.101	10.88
735.852	8.88
736.603	11.88
737.354	5.88
738.104	7.88
738.855	9.88
739.605	10.88
740.356	9.88
741.106	10.88
741.856	9.88
742.607	8.88
743.357	9.88
744.107	12.88
744.857	9.88
745.607	9.88
746.357	9.88
747.106	9.88
747.856	8.88
748.606	10.88
749.355	8.88
750.105	10.88
750.854	7.88
751.603	10.88
752.353	10.88
753.102	8.88
753.851	10.88
754.6	12.88
755.349	9.88
756.098	10.88
756.847	10.88
757.595	7.88
758.344	10.88
759.093	11.88
759.841	10.88
760.589	12.88
761.338	12.88
762.086	11.88
762.834	8.88
763.582	14.88
764.331	14.88
765.079	10.88
765.826	11.88
766.574	12.88
767.322	14.88
768.07	12.88
768.817	14.88
769.565	14.88
770.312	9.88
771.06	15.88
771.807	14.88
772.554	12.88
773.302	9.88
774.049	14.88
774.796	17.88
775.543	13.88
776.29	16.88
777.036	13.88
777.783	15.88
778.53	14.88
779.276	13.88
780.023	12.88
780.769	13.88
781.516	14.88
782.262	14.88
783.008	13.88
783.754	14.88
784.5	13.88
785.246	16.88
785.992	14.88
786.738	11.88
787.484	12.88
788.23	12.88
788.975	14.88
789.721	13.88
790.466	15.88
791.212	12.88
791.957	14.88
792.702	16.88
793.447	13.88
794.193	14.88
794.938	13.88
795.683	13.88
796.427	13.88
797.172	13.88
797.917	12.88
798.662	9.88
799.406	13.88
800.151	9.88
800.895	12.88
801.64	12.88
802.384	14.88
803.128	10.88
803.872	8.88
804.616	11.88
805.36	9.88
806.104	9.88
806.848	10.88
807.592	10.88
808.336	11.88
809.079	9.88
809.823	9.88
810.566	7.88
811.31	10.88
812.053	5.88
812.796	9.88
813.539	8.88
814.283	8.88
815.026	10.88
815.769	8.88
816.511	6.88
817.254	8.88
817.997	3.88
818.74	9.88
819.482	5.88
820.225	7.88
820.967	9.88
821.71	7.88
822.452	8.88
823.194	6.88
823.936	5.88
824.678	7.88
825.42	5.88
826.162	6.88
826.904	7.88
827.646	7.88
828.388	5.88
829.129	5.88
829.871	5.88
830.612	4.88
831.354	7.88
832.095	4.88
832.836	3.88
833.577	7.88
834.319	5.88
835.06	7.88
835.801	4.88
836.542	6.88
837.282	4.88
838.023	5.88
838.764	6.88
839.504	5.88
840.245	6.88
840.985	4.88
841.726	5.88
842.466	4.88
843.206	6.88
843.946	5.88
844.687	3.88
845.427	5.88
846.166	5.88
846.906	4.88
847.646	5.88
848.386	2.88
849.125	4.88
849.865	3.88
850.605	2.88
851.344	2.88
852.083	4.88
852.823	5.88
853.562	3.88
854.301	3.88
855.04	2.88
855.779	5.88
856.518	4.88
857.257	4.88
857.995	2.88
858.734	4.88
859.473	2.88
860.211	2.88
860.95	3.88
861.688	4.88
862.426	3.88
863.165	2.88
863.903	2.88
864.641	3.88
865.379	3.88
866.117	0.88
866.855	2.88
867.593	1.88
868.33	4.88
869.068	1.88
869.806	2.88
870.543	1.88
871.28	1.88
872.018	2.88
872.755	1.88
873.492	4.88
874.229	0.88
874.967	5.88
875.703	2.88
876.44	2.88
877.177	2.88
877.914	-1.12
878.651	0.88
879.387	-0.12
880.124	3.88
880.86	1.88
881.597	1.88
882.333	3.88
883.069	1.88
883.806	4.88
884.542	2.88
885.278	1.88
886.014	4.88
886.749	1.88
887.485	2.88
888.221	0.88
888.957	-0.12
889.692	0.88
890.428	1.88
891.163	1.88
891.899	1.88
892.634	1.88
893.369	0.88
894.104	1.88
894.839	2.88
895.574	-0.12
896.309	1.88
897.044	1.88
897.779	-1.12
898.514	0.88
899.248	2.88
899.983	1.88
900.717	1.88
901.452	-0.12
902.186	0.88
902.92	-1.12
903.654	1.88
904.389	0.88
905.123	3.88
905.857	1.88
906.59	1.88
907.324	1.88
908.058	-1.12
908.792	0.88
909.525	-0.12
910.259	0.88
910.992	0.88
911.726	-0.12
912.459	0.88
913.192	-2.12
913.925	1.88
914.658	3.88
915.391	-0.12
916.124	-1.12
916.857	0.88
917.59	-1.12
918.323	0.88
919.055	-0.12
919.788	-0.12
920.521	-1.12
921.253	-0.12
921.985	0.88
922.718	0.88
923.45	1.88
924.182	-0.12
924.914	-1.12
925.646	-0.12
926.378	0.88
927.11	-0.12
927.841	0.88
928.573	0.88
929.305	-1.12
930.036	-0.12
930.768	-0.12
931.499	1.88
932.23	-0.12
932.962	1.88
933.693	-0.12
934.424	0.88
935.155	0.88
935.886	1.88
936.617	0.88
937.348	1.88
938.078	2.88
938.809	1.88
939.54	-1.12
940.27	1.88
941.001	1.88
941.731	-1.12
942.461	-2.12
943.191	-1.12
943.922	2.88
944.652	-1.12
945.382	0.88
946.112	0.88
946.841	0.88
947.571	1.88
948.301	1.88
949.031	-1.12
949.76	-1.12
950.49	1.88
951.219	-1.12
951.948	0.88
952.678	-1.12
953.407	-0.12
954.136	1.88
954.865	2.88
955.594	0.88
956.323	-0.12
957.052	-0.12
957.78	2.88
958.509	0.88
959.238	0.88
959.966	0.88
960.695	-0.12
961.423	0.88
962.151	0.88
962.88	2.88
963.608	-1.12
964.336	-0.12
965.064	-0.12
965.792	-1.12
966.52	-1.12
967.247	0.88
967.975	0.88
968.703	-1.12
969.43	-0.12
970.158	1.88
970.885	2.88
971.613	-1.12
972.34	0.88
973.067	0.88
973.794	1.88
974.521	-3.12
975.248	-0.12
975.975	-2.12
976.702	0.88
977.429	-0.12
978.156	-0.12
978.882	0.88
979.609	-1.12
980.335	-0.12
981.062	-1.12
981.788	2.88
982.514	-1.12
983.24	1.88
983.967	-1.12
984.693	1.88
985.419	0.88
986.144	-1.12
986.87	0.88
987.596	2.88
988.322	0.88
989.047	1.88
989.773	1.88
990.498	0.88
991.224	-2.12
991.949	1.88
992.674	2.88
993.399	0.88
994.124	-1.12
994.849	0.88
995.574	0.88
996.299	2.88
997.024	0.88
997.749	2.88
998.473	-0.12
999.198	-0.12
999.922	-0.12
1000.647	0.88
1001.371	1.88
1002.095	-1.12
1002.82	0.88
1003.544	-0.12
1004.268	3.88
1004.992	4.88
1005.716	2.88
1006.439	6.88
1007.163	2.88
1007.887	6.88
1008.611	-0.12
1009.334	0.88
1010.058	1.88
1010.781	-1.12
1011.504	0.88
1012.228	1.88
1012.951	1.88
1013.674	-1.12
1014.397	-1.12
1015.12	-1.12
