节点500_705_QEPB04081__266__20-49-44-427.txt的数据

Date: Wed Nov 12 20:49:44 CST 2025
User: PC
Spectrometer: QEPB0408
触发模式: 0
积分时间 (秒): 1.000000E-2
Scans to average: 1
启用暗噪声校正: true
启用非线性校正: false
滑动平均宽度: 0
X轴模式: Wavelengths
Number of Pixels in Spectrum: 1044
>>>>>Begin Spectral Data<<<<<
220.843	4.88
221.644	4.88
222.444	5.88
223.244	6.88
224.045	7.88
224.845	5.88
225.645	8.88
226.445	7.88
227.245	7.88
228.045	9.88
228.845	7.88
229.645	8.88
230.444	6.88
231.244	9.88
232.043	10.88
232.843	10.88
233.642	11.88
234.442	11.88
235.241	10.88
236.04	9.88
236.839	10.88
237.638	10.88
238.437	11.88
239.236	12.88
240.035	12.88
240.833	11.88
241.632	15.88
242.43	9.88
243.229	11.88
244.027	14.88
244.826	13.88
245.624	15.88
246.422	12.88
247.22	13.88
248.018	18.88
248.816	15.88
249.614	16.88
250.412	18.88
251.21	17.88
252.007	18.88
252.805	14.88
253.602	18.88
254.4	17.88
255.197	18.88
255.994	18.88
256.791	21.88
257.589	22.88
258.386	20.88
259.183	24.88
259.979	22.88
260.776	23.88
261.573	25.88
262.37	25.88
263.166	24.88
263.963	26.88
264.759	27.88
265.556	26.88
266.352	28.88
267.148	25.88
267.944	28.88
268.74	31.88
269.536	30.88
270.332	29.88
271.128	30.88
271.924	32.88
272.719	32.88
273.515	34.88
274.311	32.88
275.106	35.88
275.901	35.88
276.697	32.88
277.492	38.88
278.287	34.88
279.082	34.88
279.877	34.88
280.672	34.88
281.467	35.88
282.262	34.88
283.056	32.88
283.851	35.88
284.646	35.88
285.44	33.88
286.234	31.88
287.029	39.88
287.823	35.88
288.617	34.88
289.411	31.88
290.205	32.88
290.999	35.88
291.793	30.88
292.587	34.88
293.381	30.88
294.174	31.88
294.968	29.88
295.761	28.88
296.555	27.88
297.348	25.88
298.141	27.88
298.935	33.88
299.728	26.88
300.521	27.88
301.314	25.88
302.107	24.88
302.899	29.88
303.692	19.88
304.485	22.88
305.277	21.88
306.07	24.88
306.862	22.88
307.655	22.88
308.447	21.88
309.239	23.88
310.031	18.88
310.823	19.88
311.615	17.88
312.407	18.88
313.199	18.88
313.991	21.88
314.783	18.88
315.574	16.88
316.366	13.88
317.157	17.88
317.949	15.88
318.74	17.88
319.531	13.88
320.322	12.88
321.113	17.88
321.904	16.88
322.695	13.88
323.486	14.88
324.277	10.88
325.068	13.88
325.858	14.88
326.649	14.88
327.439	14.88
328.23	13.88
329.02	10.88
329.81	13.88
330.6	13.88
331.391	10.88
332.181	13.88
332.971	13.88
333.76	11.88
334.55	13.88
335.34	13.88
336.13	11.88
336.919	13.88
337.709	14.88
338.498	11.88
339.287	14.88
340.077	9.88
340.866	14.88
341.655	14.88
342.444	11.88
343.233	10.88
344.022	13.88
344.811	10.88
345.6	12.88
346.388	10.88
347.177	9.88
347.965	13.88
348.754	9.88
349.542	14.88
350.33	11.88
351.119	11.88
351.907	9.88
352.695	9.88
353.483	13.88
354.271	10.88
355.059	10.88
355.846	14.88
356.634	11.88
357.422	11.88
358.209	11.88
358.997	9.88
359.784	9.88
360.571	9.88
361.359	8.88
362.146	11.88
362.933	11.88
363.72	11.88
364.507	10.88
365.294	11.88
366.081	11.88
366.867	11.88
367.654	11.88
368.44	10.88
369.227	11.88
370.013	13.88
370.8	9.88
371.586	10.88
372.372	10.88
373.158	8.88
373.944	12.88
374.73	10.88
375.516	11.88
376.302	8.88
377.088	10.88
377.873	9.88
378.659	9.88
379.445	13.88
380.23	7.88
381.015	10.88
381.801	8.88
382.586	8.88
383.371	12.88
384.156	11.88
384.941	12.88
385.726	9.88
386.511	9.88
387.296	13.88
388.08	13.88
388.865	12.88
389.649	9.88
390.434	12.88
391.218	13.88
392.003	10.88
392.787	12.88
393.571	12.88
394.355	12.88
395.139	12.88
395.923	13.88
396.707	12.88
397.491	13.88
398.274	14.88
399.058	15.88
399.842	15.88
400.625	14.88
401.408	15.88
402.192	14.88
402.975	14.88
403.758	14.88
404.541	14.88
405.324	15.88
406.107	13.88
406.89	16.88
407.673	17.88
408.456	14.88
409.238	17.88
410.021	15.88
410.803	17.88
411.586	19.88
412.368	15.88
413.151	17.88
413.933	17.88
414.715	17.88
415.497	18.88
416.279	20.88
417.061	20.88
417.843	17.88
418.624	19.88
419.406	22.88
420.188	21.88
420.969	20.88
421.751	18.88
422.532	22.88
423.313	23.88
424.095	26.88
424.876	23.88
425.657	26.88
426.438	24.88
427.219	25.88
428	29.88
428.78	27.88
429.561	26.88
430.342	31.88
431.122	32.88
431.903	32.88
432.683	36.88
433.464	32.88
434.244	34.88
435.024	37.88
435.804	42.88
436.584	42.88
437.364	47.88
438.144	51.88
438.924	51.88
439.704	55.88
440.483	60.88
441.263	56.88
442.042	63.88
442.822	67.88
443.601	73.88
444.38	79.88
445.16	85.88
445.939	94.88
446.718	99.88
447.497	113.88
448.276	118.88
449.054	131.88
449.833	146.88
450.612	156.88
451.391	175.88
452.169	187.88
452.948	211.88
453.726	236.88
454.504	266.88
455.282	291.88
456.061	329.88
456.839	370.88
457.617	415.88
458.395	448.88
459.172	497.88
459.95	567.88
460.728	625.88
461.506	700.88
462.283	781.88
463.061	865.88
463.838	966.88
464.615	1078.88
465.393	1193.88
466.17	1343.88
466.947	1484.88
467.724	1666.88
468.501	1835.88
469.278	2032.88
470.055	2239.88
470.831	2492.88
471.608	2747.88
472.385	3038.88
473.161	3346.88
473.938	3687.88
474.714	4060.88
475.49	4435.88
476.266	4874.88
477.043	5338.88
477.819	5878.88
478.595	6431.88
479.371	7031.88
480.146	7671.88
480.922	8370.88
481.698	9115.88
482.473	9964.88
483.249	10837.88
484.024	11817.88
484.8	12798.88
485.575	13906.88
486.35	15101.88
487.126	16308.88
487.901	17643.88
488.676	19151.88
489.451	20652.88
490.225	22182.88
491	23828.88
491.775	25476.88
492.55	27231.88
493.324	29111.88
494.099	30822.88
494.873	32688.88
495.647	34505.88
496.422	36414.88
497.196	38156.88
497.97	39827.88
498.744	41311.88
499.518	43000.88
500.292	44267.88
501.066	45313.88
501.839	46205.88
502.613	46909.88
503.387	47518.88
504.16	47792.88
504.934	47907.88
505.707	47776.88
506.48	47364.88
507.253	46797.88
508.027	45925.88
508.8	44929.88
509.573	43770.88
510.346	42656.88
511.118	41611.88
511.891	40201.88
512.664	38754.88
513.437	37088.88
514.209	35804.88
514.982	34449.88
515.754	32977.88
516.526	31615.88
517.298	30373.88
518.071	29158.88
518.843	27987.88
519.615	26873.88
520.387	25821.88
521.159	24730.88
521.93	23761.88
522.702	22764.88
523.474	21778.88
524.245	20839.88
525.017	19909.88
525.788	19017.88
526.56	18235.88
527.331	17434.88
528.102	16537.88
528.873	15669.88
529.644	14932.88
530.415	14260.88
531.186	13529.88
531.957	12851.88
532.728	12131.88
533.498	11500.88
534.269	10879.88
535.039	10300.88
535.81	9750.88
536.58	9258.88
537.351	8722.88
538.121	8241.88
538.891	7836.88
539.661	7417.88
540.431	7039.88
541.201	6668.88
541.971	6308.88
542.741	5995.88
543.51	5658.88
544.28	5391.88
545.05	5158.88
545.819	4905.88
546.588	4659.88
547.358	4477.88
548.127	4223.88
548.896	4013.88
549.665	3816.88
550.434	3586.88
551.203	3398.88
551.972	3247.88
552.741	3064.88
553.51	2887.88
554.278	2706.88
555.047	2584.88
555.815	2443.88
556.584	2320.88
557.352	2174.88
558.121	2045.88
558.889	1934.88
559.657	1830.88
560.425	1735.88
561.193	1644.88
561.961	1565.88
562.729	1467.88
563.496	1385.88
564.264	1315.88
565.032	1228.88
565.799	1179.88
566.567	1118.88
567.334	1059.88
568.101	1000.88
568.869	942.88
569.636	886.88
570.403	839.88
571.17	783.88
571.937	746.88
572.704	695.88
573.471	676.88
574.237	619.88
575.004	590.88
575.771	552.88
576.537	526.88
577.303	494.88
578.07	466.88
578.836	443.88
579.602	416.88
580.368	399.88
581.134	377.88
581.9	356.88
582.666	342.88
583.432	324.88
584.198	303.88
584.964	285.88
585.729	273.88
586.495	265.88
587.26	248.88
588.025	235.88
588.791	219.88
589.556	212.88
590.321	204.88
591.086	194.88
591.851	187.88
592.616	172.88
593.381	166.88
594.146	155.88
594.911	149.88
595.675	151.88
596.44	140.88
597.204	132.88
597.969	126.88
598.733	119.88
599.497	115.88
600.261	112.88
601.025	105.88
601.79	103.88
602.553	97.88
603.317	95.88
604.081	90.88
604.845	83.88
605.609	83.88
606.372	84.88
607.136	78.88
607.899	73.88
608.662	71.88
609.426	68.88
610.189	68.88
610.952	65.88
611.715	59.88
612.478	62.88
613.241	56.88
614.004	57.88
614.767	55.88
615.529	55.88
616.292	50.88
617.055	49.88
617.817	44.88
618.579	46.88
619.342	44.88
620.104	39.88
620.866	39.88
621.628	38.88
622.39	38.88
623.152	38.88
623.914	35.88
624.676	34.88
625.438	32.88
626.199	37.88
626.961	31.88
627.722	28.88
628.484	28.88
629.245	23.88
630.006	28.88
630.768	26.88
631.529	27.88
632.29	26.88
633.051	23.88
633.812	27.88
634.573	24.88
635.333	24.88
636.094	23.88
636.855	22.88
637.615	17.88
638.376	19.88
639.136	20.88
639.896	21.88
640.657	18.88
641.417	19.88
642.177	18.88
642.937	19.88
643.697	15.88
644.457	18.88
645.216	17.88
645.976	15.88
646.736	15.88
647.495	16.88
648.255	16.88
649.014	15.88
649.774	17.88
650.533	13.88
651.292	13.88
652.051	13.88
652.81	13.88
653.569	14.88
654.328	15.88
655.087	13.88
655.846	14.88
656.604	12.88
657.363	12.88
658.121	12.88
658.88	12.88
659.638	13.88
660.397	12.88
661.155	9.88
661.913	11.88
662.671	13.88
663.429	14.88
664.187	10.88
664.945	9.88
665.703	9.88
666.46	11.88
667.218	9.88
667.976	11.88
668.733	10.88
669.49	11.88
670.248	8.88
671.005	9.88
671.762	9.88
672.519	10.88
673.276	10.88
674.033	10.88
674.79	8.88
675.547	9.88
676.304	10.88
677.06	7.88
677.817	8.88
678.574	10.88
679.33	10.88
680.086	11.88
680.843	9.88
681.599	9.88
682.355	10.88
683.111	9.88
683.867	7.88
684.623	7.88
685.379	8.88
686.135	7.88
686.89	8.88
687.646	9.88
688.402	7.88
689.157	8.88
689.912	8.88
690.668	8.88
691.423	10.88
692.178	9.88
692.933	8.88
693.688	7.88
694.443	8.88
695.198	5.88
695.953	9.88
696.708	9.88
697.462	8.88
698.217	7.88
698.972	6.88
699.726	7.88
700.48	7.88
701.235	8.88
701.989	8.88
702.743	9.88
703.497	9.88
704.251	9.88
705.005	9.88
705.759	9.88
706.513	7.88
707.266	6.88
708.02	8.88
708.774	8.88
709.527	9.88
710.28	8.88
711.034	9.88
711.787	8.88
712.54	9.88
713.293	8.88
714.046	10.88
714.799	11.88
715.552	9.88
716.305	7.88
717.058	7.88
717.81	6.88
718.563	11.88
719.315	9.88
720.068	10.88
720.82	10.88
721.573	8.88
722.325	5.88
723.077	9.88
723.829	9.88
724.581	8.88
725.333	9.88
726.085	8.88
726.836	8.88
727.588	9.88
728.34	7.88
729.091	8.88
729.843	8.88
730.594	8.88
731.346	9.88
732.097	10.88
732.848	10.88
733.599	6.88
734.35	9.88
735.101	8.88
735.852	9.88
736.603	12.88
737.354	10.88
738.104	9.88
738.855	10.88
739.605	9.88
740.356	11.88
741.106	12.88
741.856	11.88
742.607	12.88
743.357	10.88
744.107	10.88
744.857	9.88
745.607	10.88
746.357	10.88
747.106	13.88
747.856	11.88
748.606	9.88
749.355	11.88
750.105	12.88
750.854	11.88
751.603	11.88
752.353	9.88
753.102	11.88
753.851	9.88
754.6	11.88
755.349	13.88
756.098	10.88
756.847	14.88
757.595	11.88
758.344	12.88
759.093	12.88
759.841	16.88
760.589	11.88
761.338	13.88
762.086	12.88
762.834	12.88
763.582	13.88
764.331	13.88
765.079	14.88
765.826	14.88
766.574	15.88
767.322	15.88
768.07	14.88
768.817	14.88
769.565	16.88
770.312	15.88
771.06	13.88
771.807	14.88
772.554	15.88
773.302	14.88
774.049	16.88
774.796	15.88
775.543	14.88
776.29	15.88
777.036	15.88
777.783	15.88
778.53	18.88
779.276	16.88
780.023	14.88
780.769	16.88
781.516	18.88
782.262	16.88
783.008	17.88
783.754	15.88
784.5	15.88
785.246	15.88
785.992	15.88
786.738	17.88
787.484	17.88
788.23	17.88
788.975	18.88
789.721	14.88
790.466	17.88
791.212	16.88
791.957	13.88
792.702	15.88
793.447	14.88
794.193	15.88
794.938	16.88
795.683	14.88
796.427	13.88
797.172	13.88
797.917	15.88
798.662	12.88
799.406	13.88
800.151	12.88
800.895	13.88
801.64	14.88
802.384	11.88
803.128	10.88
803.872	11.88
804.616	13.88
805.36	13.88
806.104	11.88
806.848	10.88
807.592	10.88
808.336	11.88
809.079	11.88
809.823	10.88
810.566	9.88
811.31	10.88
812.053	8.88
812.796	6.88
813.539	9.88
814.283	9.88
815.026	9.88
815.769	9.88
816.511	10.88
817.254	8.88
817.997	8.88
818.74	9.88
819.482	6.88
820.225	7.88
820.967	8.88
821.71	8.88
822.452	8.88
823.194	8.88
823.936	7.88
824.678	6.88
825.42	8.88
826.162	7.88
826.904	6.88
827.646	9.88
828.388	8.88
829.129	8.88
829.871	8.88
830.612	6.88
831.354	8.88
832.095	8.88
832.836	5.88
833.577	7.88
834.319	4.88
835.06	6.88
835.801	7.88
836.542	6.88
837.282	7.88
838.023	8.88
838.764	7.88
839.504	6.88
840.245	6.88
840.985	5.88
841.726	8.88
842.466	6.88
843.206	4.88
843.946	5.88
844.687	5.88
845.427	5.88
846.166	4.88
846.906	7.88
847.646	5.88
848.386	6.88
849.125	7.88
849.865	3.88
850.605	5.88
851.344	6.88
852.083	4.88
852.823	7.88
853.562	5.88
854.301	4.88
855.04	5.88
855.779	5.88
856.518	5.88
857.257	4.88
857.995	3.88
858.734	2.88
859.473	3.88
860.211	5.88
860.95	4.88
861.688	5.88
862.426	4.88
863.165	3.88
863.903	5.88
864.641	5.88
865.379	3.88
866.117	2.88
866.855	2.88
867.593	3.88
868.33	4.88
869.068	4.88
869.806	3.88
870.543	3.88
871.28	1.88
872.018	3.88
872.755	2.88
873.492	1.88
874.229	-0.12
874.967	2.88
875.703	4.88
876.44	5.88
877.177	3.88
877.914	2.88
878.651	4.88
879.387	3.88
880.124	1.88
880.86	3.88
881.597	2.88
882.333	3.88
883.069	0.88
883.806	2.88
884.542	3.88
885.278	0.88
886.014	0.88
886.749	0.88
887.485	2.88
888.221	1.88
888.957	3.88
889.692	3.88
890.428	-0.12
891.163	3.88
891.899	-0.12
892.634	1.88
893.369	2.88
894.104	0.88
894.839	3.88
895.574	0.88
896.309	2.88
897.044	3.88
897.779	-0.12
898.514	4.88
899.248	1.88
899.983	0.88
900.717	-0.12
901.452	1.88
902.186	0.88
902.92	1.88
903.654	3.88
904.389	-0.12
905.123	0.88
905.857	-0.12
906.59	2.88
907.324	2.88
908.058	0.88
908.792	3.88
909.525	0.88
910.259	1.88
910.992	1.88
911.726	0.88
912.459	3.88
913.192	0.88
913.925	1.88
914.658	3.88
915.391	2.88
916.124	-1.12
916.857	-0.12
917.59	-0.12
918.323	-0.12
919.055	2.88
919.788	-0.12
920.521	1.88
921.253	0.88
921.985	-0.12
922.718	-1.12
923.45	-0.12
924.182	1.88
924.914	0.88
925.646	0.88
926.378	0.88
927.11	0.88
927.841	2.88
928.573	1.88
929.305	0.88
930.036	-0.12
930.768	2.88
931.499	1.88
932.23	0.88
932.962	1.88
933.693	-0.12
934.424	0.88
935.155	0.88
935.886	0.88
936.617	0.88
937.348	-2.12
938.078	1.88
938.809	3.88
939.54	0.88
940.27	3.88
941.001	1.88
941.731	1.88
942.461	2.88
943.191	0.88
943.922	0.88
944.652	1.88
945.382	-0.12
946.112	1.88
946.841	2.88
947.571	-0.12
948.301	0.88
949.031	3.88
949.76	1.88
950.49	0.88
951.219	1.88
951.948	0.88
952.678	2.88
953.407	1.88
954.136	2.88
954.865	-2.12
955.594	0.88
956.323	0.88
957.052	1.88
957.78	2.88
958.509	0.88
959.238	1.88
959.966	0.88
960.695	0.88
961.423	0.88
962.151	2.88
962.88	0.88
963.608	-0.12
964.336	2.88
965.064	2.88
965.792	1.88
966.52	-0.12
967.247	2.88
967.975	3.88
968.703	-0.12
969.43	1.88
970.158	0.88
970.885	-1.12
971.613	0.88
972.34	2.88
973.067	2.88
973.794	0.88
974.521	1.88
975.248	1.88
975.975	-1.12
976.702	1.88
977.429	1.88
978.156	2.88
978.882	-1.12
979.609	0.88
980.335	0.88
981.062	1.88
981.788	0.88
982.514	-2.12
983.24	2.88
983.967	3.88
984.693	0.88
985.419	0.88
986.144	-0.12
986.87	2.88
987.596	-0.12
988.322	-1.12
989.047	-0.12
989.773	1.88
990.498	-0.12
991.224	-0.12
991.949	0.88
992.674	-0.12
993.399	0.88
994.124	1.88
994.849	0.88
995.574	1.88
996.299	0.88
997.024	-0.12
997.749	0.88
998.473	0.88
999.198	0.88
999.922	0.88
1000.647	2.88
1001.371	2.88
1002.095	-3.12
1002.82	0.88
1003.544	-2.12
1004.268	3.88
1004.992	6.88
1005.716	6.88
1006.439	5.88
1007.163	6.88
1007.887	5.88
1008.611	1.88
1009.334	1.88
1010.058	3.88
1010.781	-0.12
1011.504	0.88
1012.228	1.88
1012.951	0.88
1013.674	-0.12
1014.397	-1.12
1015.12	1.88
