节点500_705_QEPB04081__499__20-52-58-762.txt的数据

Date: Wed Nov 12 20:52:58 CST 2025
User: PC
Spectrometer: QEPB0408
触发模式: 0
积分时间 (秒): 1.000000E-2
Scans to average: 1
启用暗噪声校正: true
启用非线性校正: false
滑动平均宽度: 0
X轴模式: Wavelengths
Number of Pixels in Spectrum: 1044
>>>>>Begin Spectral Data<<<<<
220.843	6.38
221.644	3.38
222.444	7.38
223.244	4.38
224.045	5.38
224.845	7.38
225.645	6.38
226.445	4.38
227.245	8.38
228.045	10.38
228.845	8.38
229.645	8.38
230.444	8.38
231.244	9.38
232.043	10.38
232.843	7.38
233.642	6.38
234.442	10.38
235.241	11.38
236.04	11.38
236.839	8.38
237.638	12.38
238.437	9.38
239.236	9.38
240.035	12.38
240.833	13.38
241.632	11.38
242.43	9.38
243.229	10.38
244.027	13.38
244.826	12.38
245.624	14.38
246.422	11.38
247.22	12.38
248.018	13.38
248.816	15.38
249.614	15.38
250.412	15.38
251.21	15.38
252.007	13.38
252.805	15.38
253.602	19.38
254.4	18.38
255.197	19.38
255.994	20.38
256.791	19.38
257.589	20.38
258.386	19.38
259.183	20.38
259.979	19.38
260.776	21.38
261.573	21.38
262.37	23.38
263.166	21.38
263.963	23.38
264.759	27.38
265.556	23.38
266.352	27.38
267.148	30.38
267.944	25.38
268.74	28.38
269.536	25.38
270.332	28.38
271.128	29.38
271.924	33.38
272.719	31.38
273.515	31.38
274.311	32.38
275.106	29.38
275.901	27.38
276.697	31.38
277.492	32.38
278.287	33.38
279.082	33.38
279.877	32.38
280.672	31.38
281.467	35.38
282.262	34.38
283.056	27.38
283.851	35.38
284.646	29.38
285.44	34.38
286.234	33.38
287.029	31.38
287.823	32.38
288.617	32.38
289.411	31.38
290.205	31.38
290.999	32.38
291.793	30.38
292.587	28.38
293.381	32.38
294.174	30.38
294.968	30.38
295.761	27.38
296.555	25.38
297.348	25.38
298.141	25.38
298.935	31.38
299.728	26.38
300.521	25.38
301.314	26.38
302.107	24.38
302.899	22.38
303.692	19.38
304.485	22.38
305.277	21.38
306.07	22.38
306.862	22.38
307.655	21.38
308.447	23.38
309.239	17.38
310.031	18.38
310.823	19.38
311.615	19.38
312.407	19.38
313.199	19.38
313.991	18.38
314.783	17.38
315.574	15.38
316.366	14.38
317.157	16.38
317.949	17.38
318.74	13.38
319.531	15.38
320.322	11.38
321.113	14.38
321.904	15.38
322.695	12.38
323.486	13.38
324.277	12.38
325.068	12.38
325.858	12.38
326.649	13.38
327.439	11.38
328.23	15.38
329.02	14.38
329.81	13.38
330.6	13.38
331.391	12.38
332.181	11.38
332.971	13.38
333.76	10.38
334.55	10.38
335.34	13.38
336.13	11.38
336.919	14.38
337.709	13.38
338.498	11.38
339.287	13.38
340.077	10.38
340.866	12.38
341.655	11.38
342.444	12.38
343.233	12.38
344.022	13.38
344.811	11.38
345.6	11.38
346.388	10.38
347.177	11.38
347.965	12.38
348.754	13.38
349.542	10.38
350.33	11.38
351.119	10.38
351.907	13.38
352.695	9.38
353.483	10.38
354.271	11.38
355.059	12.38
355.846	11.38
356.634	9.38
357.422	10.38
358.209	10.38
358.997	11.38
359.784	9.38
360.571	10.38
361.359	9.38
362.146	12.38
362.933	10.38
363.72	11.38
364.507	12.38
365.294	9.38
366.081	11.38
366.867	8.38
367.654	11.38
368.44	6.38
369.227	10.38
370.013	8.38
370.8	10.38
371.586	10.38
372.372	9.38
373.158	8.38
373.944	9.38
374.73	10.38
375.516	8.38
376.302	9.38
377.088	11.38
377.873	11.38
378.659	10.38
379.445	10.38
380.23	11.38
381.015	10.38
381.801	11.38
382.586	9.38
383.371	10.38
384.156	11.38
384.941	12.38
385.726	9.38
386.511	8.38
387.296	12.38
388.08	12.38
388.865	15.38
389.649	10.38
390.434	11.38
391.218	12.38
392.003	12.38
392.787	12.38
393.571	10.38
394.355	11.38
395.139	9.38
395.923	11.38
396.707	13.38
397.491	13.38
398.274	14.38
399.058	13.38
399.842	12.38
400.625	11.38
401.408	12.38
402.192	14.38
402.975	14.38
403.758	14.38
404.541	15.38
405.324	11.38
406.107	16.38
406.89	15.38
407.673	15.38
408.456	13.38
409.238	14.38
410.021	18.38
410.803	13.38
411.586	15.38
412.368	17.38
413.151	17.38
413.933	18.38
414.715	16.38
415.497	17.38
416.279	17.38
417.061	20.38
417.843	19.38
418.624	20.38
419.406	17.38
420.188	21.38
420.969	22.38
421.751	22.38
422.532	22.38
423.313	22.38
424.095	23.38
424.876	25.38
425.657	23.38
426.438	25.38
427.219	25.38
428	29.38
428.78	30.38
429.561	27.38
430.342	29.38
431.122	32.38
431.903	30.38
432.683	34.38
433.464	34.38
434.244	36.38
435.024	38.38
435.804	41.38
436.584	44.38
437.364	46.38
438.144	46.38
438.924	49.38
439.704	53.38
440.483	56.38
441.263	61.38
442.042	68.38
442.822	71.38
443.601	77.38
444.38	81.38
445.16	91.38
445.939	91.38
446.718	105.38
447.497	114.38
448.276	126.38
449.054	136.38
449.833	149.38
450.612	169.38
451.391	184.38
452.169	208.38
452.948	227.38
453.726	256.38
454.504	283.38
455.282	309.38
456.061	350.38
456.839	386.38
457.617	433.38
458.395	468.38
459.172	519.38
459.95	593.38
460.728	660.38
461.506	736.38
462.283	809.38
463.061	909.38
463.838	999.38
464.615	1114.38
465.393	1236.38
466.17	1373.38
466.947	1522.38
467.724	1689.38
468.501	1868.38
469.278	2042.38
470.055	2261.38
470.831	2522.38
471.608	2735.38
472.385	3024.38
473.161	3322.38
473.938	3652.38
474.714	4003.38
475.49	4350.38
476.266	4748.38
477.043	5196.38
477.819	5656.38
478.595	6173.38
479.371	6722.38
480.146	7316.38
480.922	7965.38
481.698	8608.38
482.473	9374.38
483.249	10126.38
484.024	10977.38
484.8	11814.38
485.575	12796.38
486.35	13834.38
487.126	14966.38
487.901	16090.38
488.676	17320.38
489.451	18681.38
490.225	20040.38
491	21475.38
491.775	22949.38
492.55	24497.38
493.324	25979.38
494.099	27667.38
494.873	29347.38
495.647	31014.38
496.422	32633.38
497.196	34292.38
497.97	35873.38
498.744	37352.38
499.518	38883.38
500.292	40346.38
501.066	41333.38
501.839	42352.38
502.613	43225.38
503.387	43979.38
504.16	44549.38
504.934	44804.38
505.707	44919.38
506.48	44808.38
507.253	44537.38
508.027	44045.38
508.8	43398.38
509.573	42544.38
510.346	41770.38
511.118	40810.38
511.891	39782.38
512.664	38360.38
513.437	37082.38
514.209	35744.38
514.982	34415.38
515.754	33216.38
516.526	31900.38
517.298	30606.38
518.071	29462.38
518.843	28287.38
519.615	27183.38
520.387	26054.38
521.159	25106.38
521.93	24055.38
522.702	23106.38
523.474	22125.38
524.245	21200.38
525.017	20331.38
525.788	19485.38
526.56	18667.38
527.331	17877.38
528.102	16995.38
528.873	16143.38
529.644	15439.38
530.415	14735.38
531.186	14016.38
531.957	13319.38
532.728	12624.38
533.498	12030.38
534.269	11343.38
535.039	10780.38
535.81	10218.38
536.58	9656.38
537.351	9140.38
538.121	8716.38
538.891	8197.38
539.661	7780.38
540.431	7323.38
541.201	6969.38
541.971	6594.38
542.741	6248.38
543.51	5932.38
544.28	5655.38
545.05	5390.38
545.819	5132.38
546.588	4908.38
547.358	4675.38
548.127	4460.38
548.896	4234.38
549.665	4011.38
550.434	3784.38
551.203	3608.38
551.972	3427.38
552.741	3232.38
553.51	3059.38
554.278	2878.38
555.047	2743.38
555.815	2593.38
556.584	2459.38
557.352	2312.38
558.121	2194.38
558.889	2063.38
559.657	1965.38
560.425	1846.38
561.193	1741.38
561.961	1674.38
562.729	1575.38
563.496	1473.38
564.264	1404.38
565.032	1318.38
565.799	1260.38
566.567	1186.38
567.334	1115.38
568.101	1067.38
568.869	997.38
569.636	950.38
570.403	884.38
571.17	839.38
571.937	796.38
572.704	757.38
573.471	712.38
574.237	668.38
575.004	632.38
575.771	594.38
576.537	553.38
577.303	528.38
578.07	505.38
578.836	466.38
579.602	438.38
580.368	429.38
581.134	397.38
581.9	381.38
582.666	365.38
583.432	346.38
584.198	325.38
584.964	314.38
585.729	297.38
586.495	271.38
587.26	258.38
588.025	251.38
588.791	239.38
589.556	221.38
590.321	214.38
591.086	199.38
591.851	193.38
592.616	185.38
593.381	175.38
594.146	165.38
594.911	163.38
595.675	153.38
596.44	150.38
597.204	137.38
597.969	134.38
598.733	132.38
599.497	121.38
600.261	118.38
601.025	107.38
601.79	111.38
602.553	105.38
603.317	98.38
604.081	98.38
604.845	91.38
605.609	87.38
606.372	83.38
607.136	81.38
607.899	79.38
608.662	74.38
609.426	72.38
610.189	68.38
610.952	63.38
611.715	62.38
612.478	62.38
613.241	60.38
614.004	59.38
614.767	54.38
615.529	55.38
616.292	51.38
617.055	50.38
617.817	48.38
618.579	48.38
619.342	47.38
620.104	44.38
620.866	43.38
621.628	41.38
622.39	39.38
623.152	37.38
623.914	37.38
624.676	35.38
625.438	34.38
626.199	35.38
626.961	30.38
627.722	32.38
628.484	27.38
629.245	31.38
630.006	30.38
630.768	28.38
631.529	23.38
632.29	26.38
633.051	26.38
633.812	26.38
634.573	24.38
635.333	24.38
636.094	19.38
636.855	18.38
637.615	21.38
638.376	23.38
639.136	22.38
639.896	19.38
640.657	21.38
641.417	17.38
642.177	19.38
642.937	19.38
643.697	19.38
644.457	18.38
645.216	19.38
645.976	19.38
646.736	14.38
647.495	16.38
648.255	15.38
649.014	15.38
649.774	13.38
650.533	12.38
651.292	13.38
652.051	15.38
652.81	14.38
653.569	13.38
654.328	11.38
655.087	16.38
655.846	13.38
656.604	14.38
657.363	13.38
658.121	13.38
658.88	13.38
659.638	11.38
660.397	11.38
661.155	11.38
661.913	11.38
662.671	13.38
663.429	10.38
664.187	9.38
664.945	10.38
665.703	10.38
666.46	11.38
667.218	11.38
667.976	11.38
668.733	9.38
669.49	11.38
670.248	9.38
671.005	11.38
671.762	11.38
672.519	8.38
673.276	11.38
674.033	9.38
674.79	10.38
675.547	8.38
676.304	7.38
677.06	9.38
677.817	7.38
678.574	10.38
679.33	7.38
680.086	7.38
680.843	10.38
681.599	9.38
682.355	6.38
683.111	10.38
683.867	10.38
684.623	6.38
685.379	8.38
686.135	11.38
686.89	10.38
687.646	8.38
688.402	8.38
689.157	9.38
689.912	6.38
690.668	7.38
691.423	5.38
692.178	5.38
692.933	6.38
693.688	7.38
694.443	8.38
695.198	9.38
695.953	9.38
696.708	8.38
697.462	6.38
698.217	9.38
698.972	8.38
699.726	10.38
700.48	8.38
701.235	8.38
701.989	9.38
702.743	6.38
703.497	4.38
704.251	8.38
705.005	8.38
705.759	8.38
706.513	4.38
707.266	9.38
708.02	8.38
708.774	7.38
709.527	8.38
710.28	7.38
711.034	8.38
711.787	8.38
712.54	6.38
713.293	6.38
714.046	6.38
714.799	9.38
715.552	4.38
716.305	9.38
717.058	6.38
717.81	11.38
718.563	9.38
719.315	7.38
720.068	9.38
720.82	5.38
721.573	8.38
722.325	8.38
723.077	7.38
723.829	5.38
724.581	7.38
725.333	8.38
726.085	8.38
726.836	8.38
727.588	10.38
728.34	9.38
729.091	8.38
729.843	7.38
730.594	7.38
731.346	9.38
732.097	11.38
732.848	8.38
733.599	9.38
734.35	10.38
735.101	6.38
735.852	10.38
736.603	8.38
737.354	10.38
738.104	10.38
738.855	10.38
739.605	9.38
740.356	9.38
741.106	10.38
741.856	8.38
742.607	11.38
743.357	9.38
744.107	9.38
744.857	11.38
745.607	10.38
746.357	9.38
747.106	9.38
747.856	9.38
748.606	11.38
749.355	11.38
750.105	9.38
750.854	11.38
751.603	10.38
752.353	10.38
753.102	10.38
753.851	13.38
754.6	14.38
755.349	10.38
756.098	13.38
756.847	11.38
757.595	11.38
758.344	12.38
759.093	11.38
759.841	12.38
760.589	13.38
761.338	10.38
762.086	12.38
762.834	10.38
763.582	13.38
764.331	14.38
765.079	11.38
765.826	11.38
766.574	13.38
767.322	14.38
768.07	13.38
768.817	13.38
769.565	15.38
770.312	13.38
771.06	13.38
771.807	14.38
772.554	13.38
773.302	13.38
774.049	14.38
774.796	14.38
775.543	14.38
776.29	12.38
777.036	15.38
777.783	14.38
778.53	13.38
779.276	15.38
780.023	11.38
780.769	15.38
781.516	14.38
782.262	18.38
783.008	15.38
783.754	15.38
784.5	13.38
785.246	14.38
785.992	12.38
786.738	12.38
787.484	15.38
788.23	17.38
788.975	16.38
789.721	15.38
790.466	14.38
791.212	15.38
791.957	14.38
792.702	14.38
793.447	15.38
794.193	14.38
794.938	14.38
795.683	12.38
796.427	13.38
797.172	10.38
797.917	14.38
798.662	11.38
799.406	12.38
800.151	12.38
800.895	11.38
801.64	11.38
802.384	13.38
803.128	11.38
803.872	11.38
804.616	8.38
805.36	11.38
806.104	12.38
806.848	11.38
807.592	9.38
808.336	11.38
809.079	10.38
809.823	13.38
810.566	9.38
811.31	12.38
812.053	10.38
812.796	8.38
813.539	9.38
814.283	11.38
815.026	9.38
815.769	9.38
816.511	9.38
817.254	8.38
817.997	10.38
818.74	8.38
819.482	8.38
820.225	8.38
820.967	6.38
821.71	9.38
822.452	9.38
823.194	8.38
823.936	8.38
824.678	6.38
825.42	7.38
826.162	6.38
826.904	6.38
827.646	8.38
828.388	6.38
829.129	7.38
829.871	5.38
830.612	6.38
831.354	6.38
832.095	7.38
832.836	6.38
833.577	9.38
834.319	7.38
835.06	6.38
835.801	7.38
836.542	6.38
837.282	6.38
838.023	7.38
838.764	6.38
839.504	5.38
840.245	6.38
840.985	5.38
841.726	6.38
842.466	7.38
843.206	6.38
843.946	3.38
844.687	5.38
845.427	6.38
846.166	5.38
846.906	7.38
847.646	5.38
848.386	3.38
849.125	7.38
849.865	7.38
850.605	5.38
851.344	8.38
852.083	5.38
852.823	7.38
853.562	7.38
854.301	3.38
855.04	4.38
855.779	4.38
856.518	3.38
857.257	5.38
857.995	5.38
858.734	4.38
859.473	3.38
860.211	4.38
860.95	4.38
861.688	3.38
862.426	3.38
863.165	6.38
863.903	6.38
864.641	3.38
865.379	2.38
866.117	3.38
866.855	3.38
867.593	3.38
868.33	3.38
869.068	3.38
869.806	2.38
870.543	3.38
871.28	-0.62
872.018	2.38
872.755	4.38
873.492	3.38
874.229	4.38
874.967	4.38
875.703	1.38
876.44	3.38
877.177	-0.62
877.914	2.38
878.651	1.38
879.387	2.38
880.124	1.38
880.86	2.38
881.597	1.38
882.333	1.38
883.069	3.38
883.806	3.38
884.542	2.38
885.278	2.38
886.014	1.38
886.749	2.38
887.485	0.38
888.221	3.38
888.957	2.38
889.692	1.38
890.428	1.38
891.163	1.38
891.899	4.38
892.634	1.38
893.369	-0.62
894.104	2.38
894.839	3.38
895.574	2.38
896.309	-0.62
897.044	3.38
897.779	1.38
898.514	1.38
899.248	3.38
899.983	1.38
900.717	3.38
901.452	1.38
902.186	0.38
902.92	3.38
903.654	2.38
904.389	1.38
905.123	1.38
905.857	2.38
906.59	3.38
907.324	0.38
908.058	2.38
908.792	-0.62
909.525	-0.62
910.259	2.38
910.992	1.38
911.726	1.38
912.459	2.38
913.192	-0.62
913.925	1.38
914.658	2.38
915.391	-0.62
916.124	3.38
916.857	0.38
917.59	1.38
918.323	2.38
919.055	0.38
919.788	2.38
920.521	-0.62
921.253	1.38
921.985	1.38
922.718	-0.62
923.45	2.38
924.182	-0.62
924.914	-1.62
925.646	1.38
926.378	-0.62
927.11	3.38
927.841	-0.62
928.573	1.38
929.305	1.38
930.036	1.38
930.768	-0.62
931.499	-0.62
932.23	-0.62
932.962	-0.62
933.693	1.38
934.424	2.38
935.155	1.38
935.886	1.38
936.617	1.38
937.348	0.38
938.078	0.38
938.809	-0.62
939.54	1.38
940.27	0.38
941.001	1.38
941.731	-0.62
942.461	0.38
943.191	0.38
943.922	0.38
944.652	0.38
945.382	-0.62
946.112	0.38
946.841	2.38
947.571	1.38
948.301	0.38
949.031	1.38
949.76	-0.62
950.49	-0.62
951.219	-0.62
951.948	2.38
952.678	3.38
953.407	0.38
954.136	3.38
954.865	0.38
955.594	0.38
956.323	-0.62
957.052	0.38
957.78	1.38
958.509	2.38
959.238	-0.62
959.966	-0.62
960.695	-0.62
961.423	1.38
962.151	0.38
962.88	2.38
963.608	1.38
964.336	2.38
965.064	1.38
965.792	1.38
966.52	0.38
967.247	-0.62
967.975	1.38
968.703	1.38
969.43	1.38
970.158	2.38
970.885	1.38
971.613	-1.62
972.34	-0.62
973.067	1.38
973.794	-0.62
974.521	1.38
975.248	1.38
975.975	-1.62
976.702	2.38
977.429	1.38
978.156	-1.62
978.882	3.38
979.609	-0.62
980.335	1.38
981.062	0.38
981.788	-0.62
982.514	-0.62
983.24	-0.62
983.967	2.38
984.693	0.38
985.419	1.38
986.144	1.38
986.87	0.38
987.596	1.38
988.322	0.38
989.047	-0.62
989.773	1.38
990.498	-0.62
991.224	-0.62
991.949	-0.62
992.674	2.38
993.399	0.38
994.124	1.38
994.849	1.38
995.574	1.38
996.299	-0.62
997.024	1.38
997.749	0.38
998.473	-0.62
999.198	1.38
999.922	0.38
1000.647	-0.62
1001.371	3.38
1002.095	-0.62
1002.82	-0.62
1003.544	0.38
1004.268	4.38
1004.992	5.38
1005.716	5.38
1006.439	2.38
1007.163	6.38
1007.887	3.38
1008.611	1.38
1009.334	-0.62
1010.058	1.38
1010.781	-0.62
1011.504	2.38
1012.228	1.38
1012.951	-2.62
1013.674	1.38
1014.397	-0.62
1015.12	-0.62
